# The SpeX Prism Spectral Libraries
# spty = NIR:L4.5  (Spectral type)
#
#     WAVELENGTH	#            FLUX	
#     (ANGSTROM)	#   (ERG/CM2/S/A)	
################	#################	
      6497.72000	      3.74419e-02	
      6519.94000	      1.35335e-02	
      6542.04000	      1.03801e-03	
      6564.03000	     -2.03030e-02	
      6585.94000	     -3.24036e-02	
      6607.75000	     -3.15112e-02	
      6629.50000	     -3.64593e-02	
      6651.18000	     -1.39998e-02	
      6672.80000	      1.03554e-02	
      6694.38000	      3.49901e-03	
      6715.92000	     -8.25230e-02	
      6737.43000	      3.52680e-02	
      6758.91000	     -1.17391e-02	
      6780.39000	      4.07491e-03	
      6801.85000	      2.29747e-02	
      6823.32000	      1.65873e-02	
      6844.80000	     -4.74662e-02	
      6866.30000	      1.15225e-02	
      6887.82000	     -2.92733e-02	
      6909.37000	      6.40731e-03	
      6930.96000	     -8.72399e-03	
      6952.60000	     -1.03819e-02	
      6974.28000	     -2.68735e-02	
      6996.02000	      7.85698e-03	
      7017.83000	      9.42990e-03	
      7039.70000	      1.53884e-02	
      7061.65000	      7.56350e-03	
      7083.68000	      9.55400e-03	
      7105.80000	     -1.11625e-02	
      7128.01000	      7.87974e-03	
      7150.31000	      3.27466e-02	
      7172.72000	     -1.20671e-02	
      7195.23000	      2.49845e-03	
      7217.85000	      2.00026e-03	
      7240.58000	     -1.46875e-02	
      7263.44000	      7.42038e-03	
      7286.42000	     -1.31864e-02	
      7309.53000	      2.32516e-02	
      7332.77000	      1.20795e-02	
      7356.14000	      8.01519e-03	
      7379.66000	      1.81239e-02	
      7403.32000	     -3.93120e-03	
      7427.12000	      1.30017e-02	
      7451.07000	      1.68262e-02	
      7475.18000	     -1.00683e-03	
      7499.44000	      6.57386e-03	
      7523.86000	     -5.55986e-03	
      7548.44000	     -6.89342e-03	
      7573.19000	      2.12943e-03	
      7598.10000	      1.20744e-02	
      7623.18000	      2.36190e-03	
      7648.43000	     -3.35192e-04	
      7673.85000	     -4.18494e-03	
      7699.46000	     -9.68639e-03	
      7725.23000	     -1.01723e-02	
      7751.19000	     -9.86914e-03	
      7777.33000	     -4.00192e-03	
      7803.65000	     -2.77262e-03	
      7830.16000	      6.21836e-03	
      7856.85000	      3.99462e-03	
      7883.73000	      1.58095e-02	
      7910.79000	      7.70067e-03	
      7938.05000	      4.31214e-04	
      7965.50000	      1.02187e-02	
      7993.14000	      6.80011e-03	
      8020.97000	      7.81612e-03	
      8048.99000	      1.19526e-02	
      8077.21000	      6.82256e-03	
      8105.63000	      4.97060e-03	
      8134.24000	      1.46116e-02	
      8163.04000	      1.16307e-02	
      8192.04000	      1.70804e-02	
      8221.24000	      1.48803e-02	
      8250.63000	      2.18763e-02	
      8280.23000	      6.58938e-03	
      8310.02000	      1.90081e-02	
      8340.00000	      1.08478e-02	
      8370.19000	      2.20870e-02	
      8400.57000	      1.80292e-02	
      8431.14000	      2.03669e-02	
      8461.92000	      1.56828e-02	
      8492.89000	      1.67968e-02	
      8524.05000	      2.89089e-02	
      8555.41000	      1.80597e-02	
      8586.97000	      1.37329e-02	
      8618.72000	      1.56350e-02	
      8650.67000	      1.45581e-02	
      8682.80000	      1.07678e-02	
      8715.14000	      1.39330e-02	
      8747.66000	      1.67332e-02	
      8780.37000	      1.43011e-02	
      8813.27000	      1.69409e-02	
      8846.37000	      2.23906e-02	
      8879.65000	      1.54526e-02	
      8913.11000	      1.76953e-02	
      8946.77000	      2.29372e-02	
      8980.61000	      2.52272e-02	
      9014.63000	      2.40920e-02	
      9048.83000	      2.27910e-02	
      9083.22000	      2.66651e-02	
      9117.78000	      2.70274e-02	
      9152.53000	      3.34614e-02	
      9187.45000	      3.34642e-02	
      9222.55000	      3.35773e-02	
      9257.82000	      3.55132e-02	
      9293.27000	      3.40836e-02	
      9328.89000	      3.19391e-02	
      9364.67000	      4.25081e-02	
      9400.63000	      3.76090e-02	
      9436.75000	      4.45201e-02	
      9473.04000	      4.00649e-02	
      9509.49000	      4.70497e-02	
      9546.10000	      4.99728e-02	
      9582.88000	      4.78442e-02	
      9619.81000	      4.44400e-02	
      9656.90000	      4.36463e-02	
      9694.14000	      4.57906e-02	
      9731.54000	      4.82205e-02	
      9769.09000	      4.93234e-02	
      9806.79000	      5.70983e-02	
      9844.63000	      5.12926e-02	
      9882.63000	      4.49394e-02	
      9920.76000	      3.98037e-02	
      9959.04000	      3.61439e-02	
      9997.46000	      3.35819e-02	
     10036.00000	      3.40854e-02	
     10074.70000	      3.94685e-02	
     10113.50000	      4.36317e-02	
     10152.50000	      4.23209e-02	
     10191.60000	      4.36880e-02	
     10230.80000	      4.46431e-02	
     10270.10000	      4.85749e-02	
     10309.60000	      4.64727e-02	
     10349.20000	      5.10201e-02	
     10388.90000	      5.29005e-02	
     10428.70000	      5.94160e-02	
     10468.70000	      6.22934e-02	
     10508.70000	      6.25468e-02	
     10548.90000	      5.72211e-02	
     10589.20000	      6.06892e-02	
     10629.60000	      6.07500e-02	
     10670.00000	      6.18879e-02	
     10710.60000	      6.33204e-02	
     10751.30000	      6.50534e-02	
     10792.10000	      7.22229e-02	
     10833.00000	      7.24149e-02	
     10874.00000	      7.34946e-02	
     10915.10000	      7.43559e-02	
     10956.20000	      7.72226e-02	
     10997.50000	      7.20334e-02	
     11038.80000	      6.98844e-02	
     11080.30000	      7.31493e-02	
     11121.80000	      7.11512e-02	
     11163.40000	      7.07629e-02	
     11205.00000	      7.04506e-02	
     11246.80000	      7.51160e-02	
     11288.60000	      7.48062e-02	
     11330.50000	      7.29333e-02	
     11372.50000	      7.04684e-02	
     11414.50000	      6.92482e-02	
     11456.60000	      7.30597e-02	
     11498.70000	      7.85091e-02	
     11541.00000	      7.85667e-02	
     11583.20000	      8.11279e-02	
     11625.60000	      7.67920e-02	
     11668.00000	      7.22671e-02	
     11710.40000	      6.98488e-02	
     11752.90000	      6.98924e-02	
     11795.50000	      7.24493e-02	
     11838.10000	      7.41001e-02	
     11880.70000	      7.86993e-02	
     11923.40000	      7.48234e-02	
     11966.10000	      7.22696e-02	
     12008.90000	      7.20622e-02	
     12051.70000	      7.62706e-02	
     12094.50000	      7.70828e-02	
     12137.40000	      8.49510e-02	
     12180.30000	      8.35389e-02	
     12223.20000	      8.94631e-02	
     12266.20000	      8.71810e-02	
     12309.20000	      9.17231e-02	
     12352.20000	      8.67215e-02	
     12395.20000	      8.57160e-02	
     12438.30000	      8.21929e-02	
     12481.40000	      8.11261e-02	
     12524.50000	      8.63227e-02	
     12567.60000	      8.93048e-02	
     12610.70000	      9.59056e-02	
     12653.90000	      9.89429e-02	
     12697.00000	      1.00850e-01	
     12740.20000	      9.79969e-02	
     12783.30000	      1.04896e-01	
     12826.50000	      1.00790e-01	
     12869.70000	      1.01127e-01	
     12912.90000	      9.72412e-02	
     12956.00000	      9.92748e-02	
     12999.20000	      9.74368e-02	
     13042.40000	      9.86564e-02	
     13085.60000	      9.95380e-02	
     13128.70000	      1.00571e-01	
     13171.90000	      9.98778e-02	
     13215.10000	      1.00591e-01	
     13258.20000	      9.57596e-02	
     13301.30000	      8.35309e-02	
     13344.50000	      7.11058e-02	
     13387.60000	      5.88137e-02	
     13430.70000	      5.50481e-02	
     13473.70000	      5.15646e-02	
     13516.80000	      4.76424e-02	
     13559.80000	      4.70691e-02	
     13602.90000	      3.98340e-02	
     13645.90000	      4.58045e-02	
     13688.80000	      4.72754e-02	
     13731.80000	      4.66517e-02	
     13774.70000	      5.01998e-02	
     13817.60000	      5.17657e-02	
     13860.50000	      4.78498e-02	
     13903.30000	      5.18785e-02	
     13946.10000	      5.20154e-02	
     13988.90000	      4.36085e-02	
     14031.60000	      5.03079e-02	
     14074.30000	      4.67107e-02	
     14117.00000	      3.88927e-02	
     14159.60000	      4.08783e-02	
     14202.30000	      4.18650e-02	
     14244.80000	      4.28894e-02	
     14287.30000	      4.37809e-02	
     14329.80000	      4.03401e-02	
     14372.30000	      4.26182e-02	
     14414.70000	      4.50117e-02	
     14457.00000	      4.75401e-02	
     14499.40000	      4.78255e-02	
     14541.60000	      4.97216e-02	
     14583.90000	      4.95092e-02	
     14626.00000	      5.08013e-02	
     14668.20000	      4.99527e-02	
     14710.30000	      5.64971e-02	
     14752.30000	      5.45889e-02	
     14794.30000	      5.54436e-02	
     14836.20000	      5.44326e-02	
     14878.10000	      5.29903e-02	
     14919.90000	      5.86426e-02	
     14961.70000	      6.10137e-02	
     15003.50000	      6.11586e-02	
     15045.10000	      6.24364e-02	
     15086.80000	      6.62588e-02	
     15128.30000	      6.39614e-02	
     15169.80000	      6.73993e-02	
     15211.30000	      7.05132e-02	
     15252.70000	      6.94734e-02	
     15294.00000	      7.23879e-02	
     15335.30000	      7.40707e-02	
     15376.60000	      7.58914e-02	
     15417.70000	      7.78944e-02	
     15458.80000	      8.05789e-02	
     15499.90000	      8.03384e-02	
     15540.90000	      8.17009e-02	
     15581.80000	      8.14568e-02	
     15622.70000	      8.20089e-02	
     15663.50000	      8.62878e-02	
     15704.20000	      8.44216e-02	
     15744.90000	      8.74006e-02	
     15785.60000	      8.31113e-02	
     15826.10000	      8.40039e-02	
     15866.60000	      8.92563e-02	
     15907.10000	      8.50099e-02	
     15947.40000	      8.48357e-02	
     15987.70000	      8.58258e-02	
     16028.00000	      8.51375e-02	
     16068.20000	      9.00679e-02	
     16108.30000	      9.18746e-02	
     16148.30000	      8.68546e-02	
     16188.30000	      8.76196e-02	
     16228.30000	      8.57357e-02	
     16268.10000	      8.58074e-02	
     16307.90000	      8.35033e-02	
     16347.60000	      8.87337e-02	
     16387.30000	      8.72748e-02	
     16426.90000	      8.96686e-02	
     16466.40000	      9.43199e-02	
     16505.90000	      9.22905e-02	
     16545.30000	      8.96293e-02	
     16584.60000	      9.01943e-02	
     16623.90000	      9.18224e-02	
     16663.10000	      9.10268e-02	
     16702.30000	      8.87656e-02	
     16741.30000	      8.98299e-02	
     16780.30000	      9.34303e-02	
     16819.30000	      9.45327e-02	
     16858.20000	      9.35641e-02	
     16897.00000	      9.19145e-02	
     16935.70000	      8.90079e-02	
     16974.40000	      9.08618e-02	
     17013.00000	      9.01293e-02	
     17051.60000	      8.74902e-02	
     17090.10000	      8.84171e-02	
     17128.50000	      8.87140e-02	
     17166.80000	      8.32953e-02	
     17205.10000	      8.01121e-02	
     17243.30000	      8.17985e-02	
     17281.50000	      7.71901e-02	
     17319.60000	      7.77656e-02	
     17357.60000	      7.64945e-02	
     17395.60000	      7.64693e-02	
     17433.50000	      7.45976e-02	
     17471.40000	      6.90593e-02	
     17509.10000	      6.97341e-02	
     17546.80000	      6.76201e-02	
     17584.50000	      6.50405e-02	
     17622.10000	      6.26867e-02	
     17659.60000	      6.03173e-02	
     17697.10000	      5.96820e-02	
     17734.50000	      5.70840e-02	
     17771.80000	      5.50141e-02	
     17809.10000	      5.35845e-02	
     17846.30000	      5.37275e-02	
     17883.40000	      5.17213e-02	
     17920.50000	      4.96443e-02	
     17957.60000	      4.89725e-02	
     17994.50000	      5.19466e-02	
     18031.40000	      4.71765e-02	
     18068.30000	      5.15373e-02	
     18105.10000	      4.79737e-02	
     18141.80000	      4.91800e-02	
     18178.50000	      4.85100e-02	
     18215.10000	      4.88875e-02	
     18251.60000	      4.68290e-02	
     18288.10000	      4.47045e-02	
     18324.60000	      5.20802e-02	
     18360.90000	      4.57633e-02	
     18397.30000	      4.19649e-02	
     18433.50000	      4.41245e-02	
     18469.70000	      4.27472e-02	
     18505.90000	      3.85493e-02	
     18542.00000	      3.91089e-02	
     18578.00000	      4.17112e-02	
     18614.00000	      3.64586e-02	
     18649.90000	      4.33742e-02	
     18685.80000	      3.62626e-02	
     18721.60000	      3.88561e-02	
     18757.30000	      4.37575e-02	
     18793.00000	      4.30819e-02	
     18828.70000	      3.88914e-02	
     18864.30000	      4.30254e-02	
     18899.80000	      4.58829e-02	
     18935.30000	      4.41774e-02	
     18970.70000	      4.59032e-02	
     19006.10000	      4.87078e-02	
     19041.40000	      5.05687e-02	
     19076.70000	      4.79128e-02	
     19111.90000	      4.76473e-02	
     19147.10000	      4.90829e-02	
     19182.20000	      5.22791e-02	
     19217.30000	      5.27497e-02	
     19252.30000	      4.67756e-02	
     19287.20000	      4.79907e-02	
     19322.20000	      4.35220e-02	
     19357.00000	      4.23645e-02	
     19391.80000	      4.39634e-02	
     19426.60000	      4.17965e-02	
     19461.30000	      4.45854e-02	
     19496.00000	      4.17159e-02	
     19530.60000	      4.44471e-02	
     19565.10000	      4.16788e-02	
     19599.70000	      3.99783e-02	
     19634.10000	      4.06325e-02	
     19668.50000	      4.09189e-02	
     19702.90000	      4.03535e-02	
     19737.20000	      3.98018e-02	
     19771.50000	      4.24736e-02	
     19805.70000	      4.15670e-02	
     19839.90000	      4.15627e-02	
     19874.00000	      4.08944e-02	
     19908.10000	      4.36286e-02	
     19942.20000	      4.10698e-02	
     19976.10000	      4.28293e-02	
     20010.10000	      4.55290e-02	
     20044.00000	      4.63581e-02	
     20077.80000	      3.94527e-02	
     20111.60000	      4.48150e-02	
     20145.40000	      4.30055e-02	
     20179.10000	      4.58464e-02	
     20212.80000	      4.58973e-02	
     20246.40000	      4.64196e-02	
     20280.00000	      4.74259e-02	
     20313.50000	      4.87679e-02	
     20347.00000	      4.80690e-02	
     20380.40000	      4.94053e-02	
     20413.80000	      5.06557e-02	
     20447.10000	      4.74505e-02	
     20480.40000	      5.15210e-02	
     20513.70000	      5.14677e-02	
     20546.90000	      5.16089e-02	
     20580.10000	      5.46984e-02	
     20613.20000	      5.46574e-02	
     20646.30000	      5.33936e-02	
     20679.30000	      5.15432e-02	
     20712.30000	      5.44206e-02	
     20745.20000	      5.39424e-02	
     20778.10000	      5.62240e-02	
     20810.90000	      5.26557e-02	
     20843.70000	      5.62030e-02	
     20876.50000	      5.91506e-02	
     20909.20000	      5.75791e-02	
     20941.90000	      5.79616e-02	
     20974.50000	      5.75268e-02	
     21007.10000	      5.96919e-02	
     21039.60000	      5.87688e-02	
     21072.10000	      6.06860e-02	
     21104.50000	      5.92550e-02	
     21136.90000	      6.07488e-02	
     21169.30000	      6.06559e-02	
     21201.60000	      6.06006e-02	
     21233.80000	      6.08205e-02	
     21266.00000	      6.05197e-02	
     21298.20000	      6.09568e-02	
     21330.30000	      6.26775e-02	
     21362.40000	      5.98737e-02	
     21394.40000	      5.91699e-02	
     21426.40000	      6.22253e-02	
     21458.30000	      6.26909e-02	
     21490.20000	      6.18916e-02	
     21522.10000	      6.22910e-02	
     21553.90000	      6.09120e-02	
     21585.60000	      5.89777e-02	
     21617.30000	      6.28615e-02	
     21649.00000	      6.33977e-02	
     21680.60000	      6.39314e-02	
     21712.10000	      6.11567e-02	
     21743.60000	      6.12037e-02	
     21775.10000	      6.31271e-02	
     21806.50000	      6.11212e-02	
     21837.90000	      5.96114e-02	
     21869.20000	      5.95086e-02	
     21900.40000	      6.00374e-02	
     21931.70000	      6.15517e-02	
     21962.80000	      5.99840e-02	
     21994.00000	      6.01745e-02	
     22025.00000	      5.91421e-02	
     22056.00000	      6.02950e-02	
     22087.00000	      5.82700e-02	
     22117.90000	      5.65860e-02	
     22148.80000	      6.06264e-02	
     22179.60000	      6.05798e-02	
     22210.40000	      5.86722e-02	
     22241.10000	      5.80168e-02	
     22271.80000	      5.58913e-02	
     22302.40000	      5.85363e-02	
     22333.00000	      5.86882e-02	
     22363.50000	      5.97504e-02	
     22394.00000	      5.71387e-02	
     22424.40000	      5.74677e-02	
     22454.80000	      5.79221e-02	
     22485.10000	      5.63211e-02	
     22515.40000	      5.43952e-02	
     22545.60000	      5.85765e-02	
     22575.70000	      5.46495e-02	
     22605.90000	      5.64596e-02	
     22635.90000	      5.48427e-02	
     22665.90000	      5.60870e-02	
     22695.90000	      5.26508e-02	
     22725.80000	      5.64434e-02	
     22755.60000	      5.28784e-02	
     22785.40000	      5.32939e-02	
     22815.20000	      5.29655e-02	
     22844.90000	      5.28386e-02	
     22874.50000	      5.59995e-02	
     22904.10000	      5.41382e-02	
     22933.60000	      4.91547e-02	
     22963.10000	      4.50261e-02	
     22992.60000	      4.25946e-02	
     23022.00000	      4.19894e-02	
     23051.30000	      4.59592e-02	
     23080.60000	      4.51337e-02	
     23109.80000	      4.52364e-02	
     23139.00000	      4.52947e-02	
     23168.10000	      4.47767e-02	
     23197.20000	      4.35469e-02	
     23226.20000	      4.31224e-02	
     23255.20000	      3.93124e-02	
     23284.10000	      4.00461e-02	
     23313.00000	      4.43462e-02	
     23341.80000	      4.17578e-02	
     23370.60000	      4.19568e-02	
     23399.30000	      4.32743e-02	
     23428.00000	      4.31502e-02	
     23456.60000	      4.31589e-02	
     23485.20000	      4.35314e-02	
     23513.70000	      4.32611e-02	
     23542.20000	      4.08835e-02	
     23570.70000	      4.01473e-02	
     23599.10000	      4.05324e-02	
     23627.40000	      3.87926e-02	
     23655.70000	      4.03879e-02	
     23684.00000	      3.97875e-02	
     23712.20000	      3.57529e-02	
     23740.40000	      3.93438e-02	
     23768.50000	      3.72642e-02	
     23796.60000	      3.93245e-02	
     23824.70000	      3.75330e-02	
     23852.70000	      3.60578e-02	
     23880.70000	      4.07871e-02	
     23908.60000	      3.97547e-02	
     23936.50000	      3.82552e-02	
     23964.40000	      3.94115e-02	
     23992.20000	      3.53849e-02	
     24020.00000	      3.86537e-02	
     24047.80000	      3.68008e-02	
     24075.50000	      3.55727e-02	
     24103.20000	      3.60257e-02	
     24130.90000	      3.84029e-02	
     24158.50000	      3.44912e-02	
     24186.10000	      3.57554e-02	
     24213.70000	      3.99084e-02	
     24241.30000	      3.44914e-02	
     24268.90000	      3.63003e-02	
     24296.40000	      3.46128e-02	
     24323.90000	      3.39447e-02	
     24351.40000	      3.28280e-02	
     24378.90000	      3.35741e-02	
     24406.40000	      2.98322e-02	
     24433.80000	      2.92784e-02	
     24461.30000	      3.27426e-02	
     24488.70000	      2.79642e-02	
     24516.20000	      3.45278e-02	
     24543.60000	      3.27756e-02	
     24571.00000	      2.87713e-02	
     24598.50000	      2.71023e-02	
     24625.90000	      2.97889e-02	
     24653.40000	      2.93207e-02	
     24680.80000	      3.01964e-02	
     24708.30000	      2.99641e-02	
     24735.80000	      3.02547e-02	
     24763.30000	      2.88177e-02	
     24790.80000	      2.57150e-02	
     24818.30000	      2.51413e-02	
     24845.90000	      3.13877e-02	
     24873.50000	      2.19271e-02	
     24901.10000	      2.70735e-02	
     24928.80000	      2.84256e-02	
     24956.50000	      2.56651e-02	
     24984.30000	      2.76698e-02	
     25012.00000	      2.96761e-02	
     25039.90000	      1.95858e-02	
     25067.80000	      1.48119e-02	
     25095.70000	      3.33602e-02	
     25123.70000	      2.92689e-02	
     25151.80000	      2.51787e-02	
     25180.00000	      2.47525e-02	
     25208.20000	      2.04993e-02	
     25236.50000	      6.34449e-03	
     25264.80000	      2.05869e-02	
     25293.30000	      3.04256e-02	
     25321.90000	      3.68839e-02	
     25350.50000	      3.60467e-02	
     25379.20000	      2.18493e-02	
     25408.10000	      5.57786e-03	
     25437.10000	      2.06661e-02	
     25466.10000	      2.36825e-02	
     25495.30000	     -5.42160e-04	
     25524.60000	      2.48222e-02	
     25554.10000	      3.78730e-02	
     25583.70000	      2.93414e-02	
#time:0.016473
