# The SpeX Prism Spectral Libraries
# spty = NIR:T1  (Spectral type)
#
#     WAVELENGTH	#            FLUX	
#     (ANGSTROM)	#   (ERG/CM2/S/A)	
################	#################	
      6574.25000	      4.94367e-02	
      6596.11000	      8.80775e-03	
      6617.89000	     -1.64295e-02	
      6639.61000	      4.96073e-02	
      6661.26000	      3.28864e-02	
      6682.86000	      9.90171e-03	
      6704.42000	      1.11474e-02	
      6725.94000	      1.05482e-02	
      6747.44000	      4.47622e-02	
      6768.92000	     -1.23607e-03	
      6790.39000	     -2.39745e-02	
      6811.85000	     -1.12312e-03	
      6833.33000	     -1.79685e-02	
      6854.81000	      1.53526e-02	
      6876.32000	      3.04868e-03	
      6897.86000	      6.78192e-04	
      6919.42000	      1.98865e-02	
      6941.03000	     -1.03426e-03	
      6962.69000	      1.24211e-02	
      6984.40000	      2.10905e-02	
      7006.17000	     -1.06203e-03	
      7028.01000	      3.39479e-02	
      7049.92000	     -3.82093e-03	
      7071.91000	      2.24121e-03	
      7093.98000	      1.28924e-02	
      7116.13000	      1.34721e-02	
      7138.38000	     -7.45718e-03	
      7160.73000	      1.06312e-03	
      7183.19000	     -4.27003e-03	
      7205.75000	      9.90298e-03	
      7228.42000	      8.40875e-04	
      7251.22000	      3.12636e-03	
      7274.13000	      4.17948e-03	
      7297.17000	      8.10930e-03	
      7320.34000	      9.64591e-03	
      7343.64000	      4.95271e-03	
      7367.08000	      5.61717e-03	
      7390.66000	     -8.57069e-04	
      7414.39000	      5.61042e-03	
      7438.26000	      2.06985e-03	
      7462.28000	      2.16588e-03	
      7486.46000	      1.27501e-03	
      7510.79000	      6.70626e-03	
      7535.29000	      1.34738e-03	
      7559.95000	      4.88283e-03	
      7584.77000	      2.08761e-03	
      7609.76000	      9.54387e-04	
      7634.92000	     -1.17713e-03	
      7660.25000	     -9.19188e-03	
      7685.76000	     -3.50037e-03	
      7711.44000	      5.18670e-03	
      7737.30000	      6.80409e-03	
      7763.34000	      3.97417e-03	
      7789.57000	      9.15009e-03	
      7815.97000	      6.79461e-04	
      7842.57000	     -3.17036e-03	
      7869.34000	      5.90473e-03	
      7896.31000	      1.95935e-03	
      7923.47000	      4.56162e-03	
      7950.81000	      2.90965e-03	
      7978.35000	      2.32681e-03	
      8006.08000	      6.18754e-03	
      8034.00000	      5.91201e-03	
      8062.11000	     -3.13082e-03	
      8090.42000	      7.81484e-03	
      8118.93000	      1.08677e-04	
      8147.63000	      7.74418e-05	
      8176.53000	      6.72082e-03	
      8205.62000	     -2.06495e-04	
      8234.91000	      2.32227e-03	
      8264.39000	      3.26834e-03	
      8294.08000	      5.62628e-03	
      8323.96000	      5.08908e-03	
      8354.04000	      6.62286e-03	
      8384.31000	      3.89581e-03	
      8414.78000	      8.90618e-03	
      8445.45000	      1.74020e-02	
      8476.32000	      1.32974e-02	
      8507.38000	      7.03761e-03	
      8538.64000	      8.31198e-03	
      8570.09000	      1.32328e-02	
      8601.74000	      1.06736e-02	
      8633.58000	      1.48036e-02	
      8665.61000	      1.33039e-02	
      8697.84000	      1.70977e-02	
      8730.26000	      1.22618e-02	
      8762.87000	      1.41914e-02	
      8795.67000	      1.96940e-02	
      8828.67000	      2.00002e-02	
      8861.85000	      2.15989e-02	
      8895.21000	      1.86769e-02	
      8928.77000	      2.48123e-02	
      8962.51000	      2.57889e-02	
      8996.43000	      2.70561e-02	
      9030.54000	      2.67281e-02	
      9064.83000	      3.09588e-02	
      9099.30000	      2.81469e-02	
      9133.95000	      2.84815e-02	
      9168.77000	      3.62627e-02	
      9203.78000	      3.05615e-02	
      9238.96000	      2.70002e-02	
      9274.31000	      3.27375e-02	
      9309.84000	      2.16588e-02	
      9345.53000	      3.79227e-02	
      9381.40000	      3.65225e-02	
      9417.43000	      3.93139e-02	
      9453.63000	      4.03542e-02	
      9490.00000	      3.79870e-02	
      9526.53000	      4.02065e-02	
      9563.21000	      4.27100e-02	
      9600.06000	      3.95038e-02	
      9637.07000	      4.17570e-02	
      9674.23000	      4.83775e-02	
      9711.55000	      4.79695e-02	
      9749.01000	      5.32140e-02	
      9786.63000	      5.00824e-02	
      9824.40000	      5.16957e-02	
      9862.31000	      4.89107e-02	
      9900.37000	      4.59310e-02	
      9938.57000	      4.92359e-02	
      9976.92000	      5.24110e-02	
     10015.40000	      5.11812e-02	
     10054.00000	      5.51202e-02	
     10092.80000	      5.26658e-02	
     10131.70000	      6.05410e-02	
     10170.70000	      5.96280e-02	
     10209.80000	      5.98686e-02	
     10249.10000	      6.04531e-02	
     10288.50000	      6.48860e-02	
     10328.00000	      6.57196e-02	
     10367.70000	      6.77943e-02	
     10407.40000	      6.98641e-02	
     10447.30000	      6.82171e-02	
     10487.30000	      7.29801e-02	
     10527.40000	      7.20735e-02	
     10567.60000	      7.19937e-02	
     10608.00000	      7.39036e-02	
     10648.40000	      7.44948e-02	
     10688.90000	      7.48014e-02	
     10729.60000	      7.57296e-02	
     10770.30000	      7.46045e-02	
     10811.20000	      8.07219e-02	
     10852.10000	      7.96834e-02	
     10893.10000	      7.54643e-02	
     10934.20000	      7.31505e-02	
     10975.50000	      6.94980e-02	
     11016.80000	      6.95871e-02	
     11058.10000	      6.51638e-02	
     11099.60000	      6.10388e-02	
     11141.20000	      5.82773e-02	
     11182.80000	      6.49216e-02	
     11224.50000	      6.42784e-02	
     11266.30000	      6.57022e-02	
     11308.10000	      6.72610e-02	
     11350.00000	      6.14188e-02	
     11392.00000	      6.11872e-02	
     11434.10000	      6.10335e-02	
     11476.20000	      6.73896e-02	
     11518.40000	      6.82225e-02	
     11560.70000	      6.76334e-02	
     11603.00000	      6.70436e-02	
     11645.30000	      6.26740e-02	
     11687.70000	      5.75701e-02	
     11730.20000	      6.16815e-02	
     11772.70000	      6.25782e-02	
     11815.30000	      6.97148e-02	
     11857.90000	      7.56360e-02	
     11900.60000	      7.74700e-02	
     11943.30000	      8.03583e-02	
     11986.00000	      8.21805e-02	
     12028.80000	      8.58836e-02	
     12071.60000	      8.48465e-02	
     12114.50000	      8.85771e-02	
     12157.40000	      8.89346e-02	
     12200.30000	      9.37595e-02	
     12243.20000	      9.49378e-02	
     12286.20000	      9.38254e-02	
     12329.20000	      9.32022e-02	
     12372.20000	      9.03518e-02	
     12415.30000	      9.45040e-02	
     12458.40000	      8.88268e-02	
     12501.40000	      9.33360e-02	
     12544.60000	      9.54149e-02	
     12587.70000	      9.85184e-02	
     12630.80000	      9.87697e-02	
     12674.00000	      9.99300e-02	
     12717.10000	      1.01727e-01	
     12760.30000	      1.02751e-01	
     12803.40000	      9.97256e-02	
     12846.60000	      9.92137e-02	
     12889.80000	      1.00112e-01	
     12933.00000	      1.01791e-01	
     12976.20000	      9.96243e-02	
     13019.30000	      9.78368e-02	
     13062.50000	      9.78442e-02	
     13105.70000	      9.44002e-02	
     13148.90000	      9.39007e-02	
     13192.00000	      9.37807e-02	
     13235.20000	      8.50569e-02	
     13278.30000	      7.62807e-02	
     13321.40000	      5.55945e-02	
     13364.50000	      4.15321e-02	
     13407.60000	      3.51489e-02	
     13450.70000	      2.91304e-02	
     13493.80000	      2.65075e-02	
     13536.80000	      2.85301e-02	
     13579.90000	      2.45187e-02	
     13622.90000	      2.84373e-02	
     13665.90000	      3.74498e-02	
     13708.80000	      4.03582e-02	
     13751.80000	      3.40238e-02	
     13794.70000	      4.16988e-02	
     13837.60000	      3.40757e-02	
     13880.40000	      3.40159e-02	
     13923.20000	      3.84776e-02	
     13966.00000	      3.43669e-02	
     14008.80000	      3.46361e-02	
     14051.50000	      3.60006e-02	
     14094.20000	      3.27391e-02	
     14136.90000	      2.89067e-02	
     14179.50000	      2.61391e-02	
     14222.10000	      2.34755e-02	
     14264.60000	      2.73482e-02	
     14307.10000	      2.73959e-02	
     14349.60000	      3.16311e-02	
     14392.00000	      2.78848e-02	
     14434.40000	      3.44342e-02	
     14476.80000	      3.31985e-02	
     14519.10000	      3.84180e-02	
     14561.30000	      3.64266e-02	
     14603.50000	      4.16315e-02	
     14645.70000	      4.10621e-02	
     14687.80000	      4.35477e-02	
     14729.80000	      4.11630e-02	
     14771.90000	      4.27961e-02	
     14813.80000	      4.46068e-02	
     14855.70000	      4.94263e-02	
     14897.60000	      4.64363e-02	
     14939.40000	      4.98692e-02	
     14981.20000	      5.27463e-02	
     15022.90000	      5.34965e-02	
     15064.50000	      5.14964e-02	
     15106.10000	      5.61300e-02	
     15147.70000	      5.93970e-02	
     15189.20000	      6.20199e-02	
     15230.60000	      6.53439e-02	
     15272.00000	      6.26818e-02	
     15313.30000	      6.67811e-02	
     15354.50000	      7.04648e-02	
     15395.70000	      6.98071e-02	
     15436.90000	      7.26324e-02	
     15478.00000	      7.49275e-02	
     15519.00000	      7.77358e-02	
     15560.00000	      7.86190e-02	
     15600.90000	      7.63870e-02	
     15641.70000	      7.69069e-02	
     15682.50000	      7.94420e-02	
     15723.20000	      8.24728e-02	
     15763.90000	      8.43155e-02	
     15804.50000	      8.86889e-02	
     15845.00000	      8.46582e-02	
     15885.50000	      8.20383e-02	
     15925.90000	      8.56711e-02	
     15966.20000	      8.44261e-02	
     16006.50000	      8.42724e-02	
     16046.70000	      8.45431e-02	
     16086.90000	      8.53670e-02	
     16127.00000	      8.34460e-02	
     16167.00000	      8.09228e-02	
     16206.90000	      8.23243e-02	
     16246.80000	      8.16430e-02	
     16286.70000	      7.89426e-02	
     16326.40000	      8.06984e-02	
     16366.10000	      7.75523e-02	
     16405.80000	      8.04887e-02	
     16445.30000	      8.12268e-02	
     16484.80000	      8.20506e-02	
     16524.30000	      8.03076e-02	
     16563.60000	      8.21216e-02	
     16602.90000	      7.86909e-02	
     16642.20000	      7.76625e-02	
     16681.40000	      7.41779e-02	
     16720.50000	      7.37847e-02	
     16759.50000	      7.50213e-02	
     16798.50000	      7.55339e-02	
     16837.40000	      7.57475e-02	
     16876.30000	      7.39962e-02	
     16915.00000	      7.58340e-02	
     16953.80000	      7.54408e-02	
     16992.40000	      7.24942e-02	
     17031.00000	      7.28177e-02	
     17069.50000	      7.16313e-02	
     17108.00000	      6.98634e-02	
     17146.40000	      7.05680e-02	
     17184.70000	      6.92642e-02	
     17222.90000	      6.65004e-02	
     17261.10000	      6.40870e-02	
     17299.30000	      6.03319e-02	
     17337.30000	      6.03250e-02	
     17375.30000	      5.50651e-02	
     17413.30000	      5.61558e-02	
     17451.10000	      5.56938e-02	
     17489.00000	      5.09920e-02	
     17526.70000	      4.83627e-02	
     17564.40000	      4.75338e-02	
     17602.00000	      4.71431e-02	
     17639.60000	      4.16188e-02	
     17677.10000	      3.80106e-02	
     17714.50000	      3.70664e-02	
     17751.90000	      3.76064e-02	
     17789.20000	      3.61867e-02	
     17826.40000	      3.41071e-02	
     17863.60000	      3.19178e-02	
     17900.70000	      3.59335e-02	
     17937.80000	      3.23213e-02	
     17974.80000	      3.22115e-02	
     18011.70000	      3.07740e-02	
     18048.60000	      2.54728e-02	
     18085.40000	      3.05067e-02	
     18122.20000	      3.25394e-02	
     18158.90000	      3.46110e-02	
     18195.50000	      3.23053e-02	
     18232.10000	      3.14357e-02	
     18268.60000	      3.37744e-02	
     18305.10000	      2.95483e-02	
     18341.50000	      2.94780e-02	
     18377.90000	      3.06506e-02	
     18414.20000	      2.35883e-02	
     18450.40000	      2.73822e-02	
     18486.60000	      2.65496e-02	
     18522.70000	      2.10152e-02	
     18558.70000	      1.93951e-02	
     18594.80000	      2.34982e-02	
     18630.70000	      1.84700e-02	
     18666.60000	      3.06044e-02	
     18702.40000	      3.32995e-02	
     18738.20000	      2.83094e-02	
     18774.00000	      2.60499e-02	
     18809.60000	      3.02337e-02	
     18845.30000	      2.77435e-02	
     18880.80000	      2.90802e-02	
     18916.30000	      2.99072e-02	
     18951.80000	      3.03882e-02	
     18987.20000	      3.39037e-02	
     19022.60000	      3.66603e-02	
     19057.90000	      2.51943e-02	
     19093.10000	      4.20646e-02	
     19128.30000	      3.76160e-02	
     19163.40000	      4.04930e-02	
     19198.50000	      3.60909e-02	
     19233.60000	      3.65033e-02	
     19268.60000	      3.21594e-02	
     19303.50000	      2.97292e-02	
     19338.40000	      2.91948e-02	
     19373.20000	      2.75764e-02	
     19408.00000	      2.36315e-02	
     19442.80000	      2.62553e-02	
     19477.50000	      2.19838e-02	
     19512.10000	      2.47255e-02	
     19546.70000	      2.53584e-02	
     19581.20000	      2.32314e-02	
     19615.70000	      2.63066e-02	
     19650.20000	      2.12882e-02	
     19684.60000	      2.58178e-02	
     19718.90000	      2.61450e-02	
     19753.20000	      2.65069e-02	
     19787.50000	      2.76530e-02	
     19821.70000	      2.51931e-02	
     19855.80000	      2.73271e-02	
     19889.90000	      2.47877e-02	
     19924.00000	      2.65470e-02	
     19958.00000	      2.78805e-02	
     19992.00000	      2.84202e-02	
     20025.90000	      2.68720e-02	
     20059.80000	      2.55720e-02	
     20093.60000	      2.74384e-02	
     20127.40000	      3.01874e-02	
     20161.10000	      3.19177e-02	
     20194.80000	      3.35029e-02	
     20228.40000	      3.28203e-02	
     20262.00000	      3.58931e-02	
     20295.60000	      3.42638e-02	
     20329.10000	      3.61595e-02	
     20362.50000	      3.77586e-02	
     20396.00000	      3.61564e-02	
     20429.30000	      3.62133e-02	
     20462.70000	      3.91911e-02	
     20495.90000	      3.96176e-02	
     20529.20000	      3.91079e-02	
     20562.40000	      3.96502e-02	
     20595.50000	      4.09590e-02	
     20628.60000	      4.17769e-02	
     20661.60000	      3.98831e-02	
     20694.70000	      4.31797e-02	
     20727.60000	      4.29051e-02	
     20760.50000	      4.21865e-02	
     20793.40000	      4.33096e-02	
     20826.20000	      4.30210e-02	
     20859.00000	      4.16564e-02	
     20891.70000	      4.31857e-02	
     20924.40000	      4.39573e-02	
     20957.10000	      4.32559e-02	
     20989.70000	      4.30142e-02	
     21022.20000	      4.23947e-02	
     21054.70000	      4.22714e-02	
     21087.20000	      4.35787e-02	
     21119.60000	      4.28401e-02	
     21152.00000	      4.20195e-02	
     21184.30000	      4.18139e-02	
     21216.60000	      4.27176e-02	
     21248.80000	      4.15410e-02	
     21281.00000	      4.11918e-02	
     21313.20000	      4.07262e-02	
     21345.30000	      4.08780e-02	
     21377.30000	      4.09939e-02	
     21409.30000	      4.06719e-02	
     21441.30000	      4.08073e-02	
     21473.20000	      4.16780e-02	
     21505.10000	      4.04143e-02	
     21536.90000	      4.09849e-02	
     21568.70000	      3.93446e-02	
     21600.40000	      4.04159e-02	
     21632.10000	      3.91571e-02	
     21663.70000	      3.98371e-02	
     21695.30000	      3.92700e-02	
     21726.80000	      3.94096e-02	
     21758.30000	      3.80897e-02	
     21789.70000	      3.84353e-02	
     21821.10000	      3.62764e-02	
     21852.50000	      3.63548e-02	
     21883.70000	      3.59772e-02	
     21915.00000	      3.44674e-02	
     21946.20000	      3.61909e-02	
     21977.30000	      3.45025e-02	
     22008.40000	      3.11786e-02	
     22039.50000	      3.05333e-02	
     22070.50000	      3.09988e-02	
     22101.40000	      3.12345e-02	
     22132.30000	      3.11884e-02	
     22163.20000	      3.05817e-02	
     22194.00000	      3.09617e-02	
     22224.70000	      3.09396e-02	
     22255.40000	      3.03053e-02	
     22286.10000	      3.02517e-02	
     22316.70000	      3.06114e-02	
     22347.20000	      3.03420e-02	
     22377.70000	      2.93927e-02	
     22408.20000	      2.88498e-02	
     22438.60000	      2.82023e-02	
     22468.90000	      2.79234e-02	
     22499.20000	      2.76300e-02	
     22529.40000	      2.71748e-02	
     22559.60000	      2.77903e-02	
     22589.80000	      2.64727e-02	
     22619.90000	      2.61229e-02	
     22649.90000	      2.73327e-02	
     22679.90000	      2.65645e-02	
     22709.80000	      2.55262e-02	
     22739.70000	      2.51261e-02	
     22769.50000	      2.58123e-02	
     22799.30000	      2.77719e-02	
     22829.00000	      2.57650e-02	
     22858.70000	      2.50144e-02	
     22888.30000	      2.41253e-02	
     22917.90000	      2.29617e-02	
     22947.40000	      2.17700e-02	
     22976.90000	      1.96354e-02	
     23006.30000	      1.94779e-02	
     23035.60000	      2.03225e-02	
     23064.90000	      1.95007e-02	
     23094.20000	      2.02952e-02	
     23123.40000	      1.99800e-02	
     23152.60000	      2.03242e-02	
     23181.70000	      1.62653e-02	
     23210.70000	      1.62838e-02	
     23239.70000	      1.59789e-02	
     23268.70000	      1.71778e-02	
     23297.60000	      1.68975e-02	
     23326.40000	      1.71352e-02	
     23355.20000	      1.59263e-02	
     23384.00000	      1.68914e-02	
     23412.70000	      1.78652e-02	
     23441.30000	      1.80200e-02	
     23469.90000	      1.94742e-02	
     23498.50000	      1.68029e-02	
     23527.00000	      1.72699e-02	
     23555.50000	      1.83998e-02	
     23583.90000	      1.88908e-02	
     23612.30000	      1.71106e-02	
     23640.60000	      2.07883e-02	
     23668.90000	      1.73936e-02	
     23697.10000	      1.85960e-02	
     23725.30000	      1.55388e-02	
     23753.50000	      1.63547e-02	
     23781.60000	      1.54261e-02	
     23809.70000	      1.94566e-02	
     23837.70000	      1.90380e-02	
     23865.70000	      1.85724e-02	
     23893.70000	      1.98373e-02	
     23921.60000	      1.79566e-02	
     23949.50000	      2.23006e-02	
     23977.30000	      1.59472e-02	
     24005.10000	      1.85294e-02	
     24032.90000	      1.99337e-02	
     24060.70000	      1.60557e-02	
     24088.40000	      1.76764e-02	
     24116.10000	      1.95551e-02	
     24143.80000	      2.00362e-02	
     24171.40000	      1.99603e-02	
     24199.00000	      1.98672e-02	
     24226.60000	      1.66829e-02	
     24254.10000	      1.63807e-02	
     24281.70000	      1.91668e-02	
     24309.20000	      1.78697e-02	
     24336.70000	      2.03520e-02	
     24364.20000	      1.76758e-02	
     24391.70000	      1.69777e-02	
     24419.20000	      1.74311e-02	
     24446.60000	      2.01301e-02	
     24474.10000	      1.69858e-02	
     24501.50000	      2.30177e-02	
     24528.90000	      1.67829e-02	
     24556.40000	      1.51939e-02	
     24583.80000	      1.35191e-02	
     24611.30000	      1.64263e-02	
     24638.70000	      1.39492e-02	
     24666.20000	      1.66745e-02	
     24693.60000	      1.15069e-02	
     24721.10000	      1.22791e-02	
     24748.60000	      7.71736e-03	
     24776.10000	      1.45667e-02	
     24803.60000	      1.55959e-02	
     24831.20000	      1.59200e-02	
     24858.80000	      9.05022e-03	
     24886.40000	      6.91319e-03	
     24914.00000	      1.27040e-02	
     24941.70000	      9.57112e-03	
     24969.40000	      1.69160e-02	
     24997.20000	      2.17375e-02	
     25025.00000	      8.13139e-03	
     25052.90000	      8.70169e-03	
     25080.80000	      1.41081e-02	
     25108.80000	      2.47031e-02	
     25136.80000	      2.00375e-02	
     25164.90000	      1.05672e-02	
     25193.10000	      6.96065e-03	
     25221.30000	      9.81469e-03	
     25249.70000	      2.85017e-02	
     25278.10000	      3.26811e-02	
     25306.60000	      1.35815e-02	
     25335.20000	      1.23748e-02	
     25363.90000	     -4.48282e-04	
     25392.70000	      4.36278e-03	
     25421.60000	      5.90124e-02	
     25450.60000	      4.57228e-02	
     25479.70000	      2.71036e-02	
     25509.00000	      3.70059e-02	
     25538.30000	     -3.09374e-02	
     25567.90000	      2.62417e-02	
     25597.50000	     -4.49398e-03	
#time:0.015607
