# The SpeX Prism Spectral Libraries
# spty = NIR:T3  (Spectral type)
#
#     WAVELENGTH	#            FLUX	
#     (ANGSTROM)	#   (ERG/CM2/S/A)	
################	#################	
      6580.98000	      9.28140e-03	
      6602.82000	      2.07671e-02	
      6624.58000	     -1.64273e-02	
      6646.27000	      1.91399e-02	
      6667.91000	     -1.81069e-02	
      6689.50000	     -3.17067e-04	
      6711.04000	      5.36354e-04	
      6732.56000	      3.85326e-03	
      6754.05000	      2.40448e-03	
      6775.52000	     -4.40838e-03	
      6796.99000	      3.31209e-03	
      6818.46000	     -2.88618e-03	
      6839.94000	     -7.29090e-03	
      6861.43000	      7.13172e-03	
      6882.94000	     -2.88030e-03	
      6904.49000	      6.19441e-03	
      6926.07000	     -1.95803e-02	
      6947.69000	      7.68645e-03	
      6969.37000	     -1.41123e-02	
      6991.09000	     -8.70669e-03	
      7012.89000	     -1.09911e-02	
      7034.74000	     -2.54418e-04	
      7056.68000	     -1.11665e-02	
      7078.69000	      4.06801e-03	
      7100.78000	     -3.90208e-03	
      7122.97000	      5.20372e-03	
      7145.25000	      1.76058e-03	
      7167.63000	      8.21630e-03	
      7190.12000	     -6.70480e-03	
      7212.72000	     -1.46408e-02	
      7235.43000	      3.12190e-04	
      7258.25000	      3.43350e-05	
      7281.21000	     -5.83461e-03	
      7304.28000	      1.71655e-03	
      7327.49000	     -5.60867e-03	
      7350.84000	      5.94366e-03	
      7374.32000	      5.44753e-04	
      7397.95000	     -7.36097e-04	
      7421.72000	     -5.70786e-03	
      7445.63000	      2.75227e-03	
      7469.71000	      4.53281e-03	
      7493.93000	      1.52102e-03	
      7518.32000	      3.67726e-03	
      7542.86000	     -7.35133e-04	
      7567.57000	     -5.78864e-04	
      7592.44000	      7.88336e-04	
      7617.48000	     -1.74250e-04	
      7642.70000	     -6.18127e-03	
      7668.08000	     -7.68163e-03	
      7693.64000	     -7.38881e-03	
      7719.38000	     -9.70737e-04	
      7745.30000	      4.71695e-04	
      7771.39000	     -8.42852e-04	
      7797.67000	      7.63157e-04	
      7824.14000	      8.21925e-04	
      7850.79000	      8.98593e-04	
      7877.62000	      5.22572e-03	
      7904.65000	      1.26148e-03	
      7931.86000	      6.54244e-04	
      7959.26000	      2.77767e-03	
      7986.86000	     -2.44730e-04	
      8014.65000	      5.35720e-03	
      8042.63000	      7.07446e-03	
      8070.80000	      3.36565e-03	
      8099.17000	      9.77810e-03	
      8127.74000	      7.70539e-03	
      8156.50000	     -6.30568e-03	
      8185.46000	      1.06734e-03	
      8214.61000	      4.26327e-03	
      8243.96000	      3.40456e-03	
      8273.51000	      3.56537e-03	
      8303.25000	      6.99239e-03	
      8333.19000	      1.93530e-03	
      8363.33000	      5.78792e-04	
      8393.67000	      4.29879e-03	
      8424.20000	      7.28926e-03	
      8454.93000	      2.58065e-03	
      8485.85000	      4.02843e-03	
      8516.98000	      3.43780e-03	
      8548.29000	      7.61607e-03	
      8579.81000	      8.53297e-03	
      8611.51000	      6.98742e-03	
      8643.41000	      6.94956e-03	
      8675.51000	      5.91427e-03	
      8707.80000	      9.52965e-03	
      8740.27000	      5.93725e-03	
      8772.94000	      1.21008e-02	
      8805.80000	      8.18050e-03	
      8838.85000	      1.15330e-02	
      8872.09000	      1.31342e-02	
      8905.52000	      1.46893e-02	
      8939.13000	      1.09509e-02	
      8972.92000	      1.06416e-02	
      9006.91000	      1.38307e-02	
      9041.07000	      1.62544e-02	
      9075.41000	      1.97618e-02	
      9109.94000	      1.71707e-02	
      9144.64000	      1.89312e-02	
      9179.53000	      2.52622e-02	
      9214.58000	      2.16723e-02	
      9249.82000	      2.14507e-02	
      9285.22000	      1.73906e-02	
      9320.80000	      1.75633e-02	
      9356.55000	      1.84248e-02	
      9392.47000	      2.46446e-02	
      9428.55000	      2.60579e-02	
      9464.81000	      2.76104e-02	
      9501.22000	      2.79670e-02	
      9537.80000	      3.04358e-02	
      9574.53000	      3.18275e-02	
      9611.43000	      3.12251e-02	
      9648.49000	      3.03629e-02	
      9685.69000	      3.28843e-02	
      9723.06000	      3.62285e-02	
      9760.57000	      3.71839e-02	
      9798.24000	      3.90391e-02	
      9836.05000	      3.94003e-02	
      9874.01000	      4.00276e-02	
      9912.11000	      4.01072e-02	
      9950.36000	      3.81846e-02	
      9988.74000	      3.99635e-02	
     10027.30000	      3.98232e-02	
     10065.90000	      4.41854e-02	
     10104.70000	      4.85927e-02	
     10143.70000	      5.13649e-02	
     10182.70000	      4.80597e-02	
     10221.90000	      5.29299e-02	
     10261.20000	      5.37254e-02	
     10300.70000	      5.70561e-02	
     10340.20000	      6.05561e-02	
     10379.90000	      6.38325e-02	
     10419.70000	      6.24631e-02	
     10459.60000	      6.44332e-02	
     10499.60000	      6.88293e-02	
     10539.80000	      7.12701e-02	
     10580.00000	      6.90869e-02	
     10620.40000	      7.33295e-02	
     10660.90000	      7.38996e-02	
     10701.40000	      7.70202e-02	
     10742.10000	      7.97072e-02	
     10782.90000	      7.76450e-02	
     10823.70000	      7.96499e-02	
     10864.70000	      7.81110e-02	
     10905.80000	      7.10522e-02	
     10946.90000	      6.55331e-02	
     10988.20000	      5.90495e-02	
     11029.50000	      5.59145e-02	
     11070.90000	      5.07512e-02	
     11112.40000	      4.53890e-02	
     11154.00000	      4.27116e-02	
     11195.60000	      4.15383e-02	
     11237.30000	      4.37158e-02	
     11279.10000	      4.43541e-02	
     11321.00000	      4.49786e-02	
     11363.00000	      3.88368e-02	
     11405.00000	      3.91699e-02	
     11447.00000	      4.12915e-02	
     11489.20000	      4.33681e-02	
     11531.40000	      4.34058e-02	
     11573.70000	      4.43831e-02	
     11616.00000	      4.30593e-02	
     11658.40000	      3.94634e-02	
     11700.80000	      3.85305e-02	
     11743.30000	      4.06710e-02	
     11785.80000	      4.45529e-02	
     11828.40000	      4.85187e-02	
     11871.00000	      5.47922e-02	
     11913.70000	      5.87924e-02	
     11956.40000	      6.05816e-02	
     11999.20000	      6.32118e-02	
     12042.00000	      6.75999e-02	
     12084.80000	      7.02267e-02	
     12127.70000	      7.55357e-02	
     12170.60000	      7.77505e-02	
     12213.50000	      8.21216e-02	
     12256.50000	      8.51785e-02	
     12299.40000	      8.78898e-02	
     12342.50000	      8.88624e-02	
     12385.50000	      8.92577e-02	
     12428.50000	      8.78712e-02	
     12471.60000	      8.95081e-02	
     12514.70000	      9.19832e-02	
     12557.80000	      9.53007e-02	
     12600.90000	      9.88957e-02	
     12644.10000	      1.02476e-01	
     12687.20000	      1.03501e-01	
     12730.40000	      1.05221e-01	
     12773.60000	      1.06315e-01	
     12816.70000	      9.97904e-02	
     12859.90000	      1.00963e-01	
     12903.10000	      9.83438e-02	
     12946.30000	      9.48711e-02	
     12989.40000	      9.43237e-02	
     13032.60000	      9.06125e-02	
     13075.80000	      9.09130e-02	
     13119.00000	      8.61053e-02	
     13162.10000	      8.08561e-02	
     13205.30000	      7.81946e-02	
     13248.40000	      7.06496e-02	
     13291.60000	      5.99355e-02	
     13334.70000	      4.24406e-02	
     13377.80000	      2.76201e-02	
     13420.90000	      1.83025e-02	
     13464.00000	      1.43679e-02	
     13507.00000	      1.22757e-02	
     13550.10000	      1.24048e-02	
     13593.10000	      1.14565e-02	
     13636.10000	      1.45229e-02	
     13679.10000	      1.20756e-02	
     13722.00000	      1.18123e-02	
     13765.00000	      1.50295e-02	
     13807.90000	      1.44415e-02	
     13850.80000	      1.29959e-02	
     13893.60000	      1.12826e-02	
     13936.40000	      1.17153e-02	
     13979.20000	      1.36314e-02	
     14021.90000	      1.24972e-02	
     14064.70000	      1.25811e-02	
     14107.30000	      1.10082e-02	
     14150.00000	      9.21251e-03	
     14192.60000	      8.58152e-03	
     14235.20000	      1.19474e-02	
     14277.70000	      1.26874e-02	
     14320.20000	      1.27151e-02	
     14362.70000	      1.20021e-02	
     14405.10000	      1.39980e-02	
     14447.40000	      1.71000e-02	
     14489.80000	      1.54085e-02	
     14532.10000	      1.83450e-02	
     14574.30000	      1.75810e-02	
     14616.50000	      2.30706e-02	
     14658.60000	      2.08725e-02	
     14700.70000	      2.06787e-02	
     14742.80000	      1.98615e-02	
     14784.80000	      2.38439e-02	
     14826.70000	      2.54777e-02	
     14868.60000	      2.15995e-02	
     14910.50000	      2.76052e-02	
     14952.30000	      2.83516e-02	
     14994.00000	      2.98321e-02	
     15035.70000	      2.87273e-02	
     15077.30000	      3.30005e-02	
     15118.90000	      3.36303e-02	
     15160.40000	      3.76274e-02	
     15201.90000	      3.93092e-02	
     15243.30000	      4.02795e-02	
     15284.70000	      4.40817e-02	
     15326.00000	      4.76489e-02	
     15367.20000	      5.02455e-02	
     15408.40000	      4.99655e-02	
     15449.50000	      5.39022e-02	
     15490.60000	      5.37793e-02	
     15531.60000	      6.05972e-02	
     15572.50000	      5.96472e-02	
     15613.40000	      5.92254e-02	
     15654.30000	      5.99282e-02	
     15695.00000	      6.62163e-02	
     15735.70000	      6.48223e-02	
     15776.40000	      6.62896e-02	
     15816.90000	      6.75576e-02	
     15857.40000	      7.05265e-02	
     15897.90000	      6.81163e-02	
     15938.30000	      6.82407e-02	
     15978.60000	      6.90778e-02	
     16018.90000	      6.45540e-02	
     16059.10000	      6.30826e-02	
     16099.20000	      5.91027e-02	
     16139.30000	      5.44842e-02	
     16179.30000	      5.59613e-02	
     16219.20000	      5.10847e-02	
     16259.10000	      4.94729e-02	
     16298.90000	      4.81904e-02	
     16338.60000	      4.71142e-02	
     16378.30000	      4.61361e-02	
     16417.90000	      4.61645e-02	
     16457.50000	      4.61164e-02	
     16497.00000	      4.83794e-02	
     16536.40000	      5.05897e-02	
     16575.70000	      5.13761e-02	
     16615.00000	      5.00521e-02	
     16654.20000	      4.69725e-02	
     16693.40000	      4.59365e-02	
     16732.50000	      4.21835e-02	
     16771.50000	      3.92168e-02	
     16810.50000	      4.40477e-02	
     16849.40000	      4.62547e-02	
     16888.20000	      4.61382e-02	
     16927.00000	      4.55620e-02	
     16965.70000	      4.21305e-02	
     17004.30000	      4.29347e-02	
     17042.80000	      4.27826e-02	
     17081.30000	      3.93933e-02	
     17119.80000	      3.99722e-02	
     17158.20000	      3.87757e-02	
     17196.50000	      3.87559e-02	
     17234.70000	      3.87520e-02	
     17272.90000	      3.64162e-02	
     17311.00000	      3.62718e-02	
     17349.00000	      3.53930e-02	
     17387.00000	      3.12872e-02	
     17424.90000	      3.10752e-02	
     17462.80000	      2.98248e-02	
     17500.60000	      2.83798e-02	
     17538.30000	      2.73590e-02	
     17576.00000	      2.72129e-02	
     17613.60000	      2.66767e-02	
     17651.10000	      2.58018e-02	
     17688.60000	      2.30605e-02	
     17726.00000	      1.80739e-02	
     17763.40000	      1.79480e-02	
     17800.60000	      1.97341e-02	
     17837.90000	      1.74555e-02	
     17875.00000	      1.76783e-02	
     17912.10000	      1.77006e-02	
     17949.20000	      1.48244e-02	
     17986.20000	      1.54709e-02	
     18023.10000	      1.50897e-02	
     18059.90000	      1.11331e-02	
     18096.70000	      1.35842e-02	
     18133.50000	      1.46705e-02	
     18170.20000	      1.47765e-02	
     18206.80000	      1.39731e-02	
     18243.40000	      1.37135e-02	
     18279.90000	      1.48811e-02	
     18316.30000	      1.47033e-02	
     18352.70000	      1.40416e-02	
     18389.00000	      1.50730e-02	
     18425.30000	      1.25048e-02	
     18461.50000	      1.00486e-02	
     18497.70000	      1.03055e-02	
     18533.80000	      1.31577e-02	
     18569.80000	      1.28510e-02	
     18605.80000	      1.23711e-02	
     18641.80000	      8.06831e-03	
     18677.60000	      1.11222e-02	
     18713.50000	      1.54722e-02	
     18749.20000	      1.56243e-02	
     18784.90000	      1.38605e-02	
     18820.60000	      1.40191e-02	
     18856.20000	      1.38785e-02	
     18891.80000	      1.09112e-02	
     18927.20000	      1.49942e-02	
     18962.70000	      1.30458e-02	
     18998.10000	      1.52390e-02	
     19033.40000	      1.45595e-02	
     19068.70000	      1.38558e-02	
     19103.90000	      1.85335e-02	
     19139.10000	      1.72786e-02	
     19174.20000	      1.64858e-02	
     19209.30000	      1.67550e-02	
     19244.40000	      1.83741e-02	
     19279.30000	      1.58894e-02	
     19314.20000	      1.47209e-02	
     19349.10000	      1.28352e-02	
     19383.90000	      1.32421e-02	
     19418.70000	      1.02225e-02	
     19453.40000	      1.14060e-02	
     19488.10000	      1.13162e-02	
     19522.70000	      1.25671e-02	
     19557.30000	      1.14577e-02	
     19591.80000	      1.30667e-02	
     19626.30000	      1.26562e-02	
     19660.70000	      1.09088e-02	
     19695.10000	      1.11295e-02	
     19729.50000	      1.24366e-02	
     19763.70000	      1.34180e-02	
     19798.00000	      1.38533e-02	
     19832.20000	      1.21968e-02	
     19866.30000	      1.46954e-02	
     19900.40000	      1.50654e-02	
     19934.50000	      1.40734e-02	
     19968.50000	      1.63340e-02	
     20002.40000	      1.65074e-02	
     20036.30000	      1.46882e-02	
     20070.20000	      1.85549e-02	
     20104.00000	      1.76797e-02	
     20137.80000	      1.85631e-02	
     20171.50000	      1.90964e-02	
     20205.10000	      1.94359e-02	
     20238.80000	      1.78333e-02	
     20272.40000	      2.10161e-02	
     20305.90000	      1.90730e-02	
     20339.40000	      2.01029e-02	
     20372.80000	      2.23014e-02	
     20406.20000	      2.25296e-02	
     20439.60000	      2.33135e-02	
     20472.90000	      2.45536e-02	
     20506.20000	      2.45516e-02	
     20539.40000	      2.39174e-02	
     20572.60000	      2.78802e-02	
     20605.70000	      2.41924e-02	
     20638.80000	      2.44593e-02	
     20671.80000	      2.55758e-02	
     20704.80000	      2.74008e-02	
     20737.70000	      2.68440e-02	
     20770.60000	      2.85161e-02	
     20803.50000	      2.67852e-02	
     20836.30000	      2.62761e-02	
     20869.10000	      2.62636e-02	
     20901.80000	      2.69885e-02	
     20934.50000	      2.74277e-02	
     20967.10000	      2.74772e-02	
     20999.70000	      2.61837e-02	
     21032.20000	      2.52815e-02	
     21064.70000	      2.58483e-02	
     21097.20000	      2.59472e-02	
     21129.60000	      2.57856e-02	
     21162.00000	      2.69145e-02	
     21194.30000	      2.56032e-02	
     21226.50000	      2.69239e-02	
     21258.80000	      2.54438e-02	
     21290.90000	      2.61618e-02	
     21323.10000	      2.50790e-02	
     21355.10000	      2.44495e-02	
     21387.20000	      2.45886e-02	
     21419.20000	      2.55492e-02	
     21451.10000	      2.37765e-02	
     21483.00000	      2.42632e-02	
     21514.90000	      2.21089e-02	
     21546.70000	      2.38554e-02	
     21578.40000	      2.32162e-02	
     21610.10000	      2.18602e-02	
     21641.80000	      2.21822e-02	
     21673.40000	      2.30669e-02	
     21705.00000	      2.18716e-02	
     21736.50000	      2.24627e-02	
     21768.00000	      2.03748e-02	
     21799.40000	      2.07344e-02	
     21830.80000	      2.06284e-02	
     21862.10000	      1.91043e-02	
     21893.40000	      1.82603e-02	
     21924.60000	      2.01091e-02	
     21955.80000	      1.87508e-02	
     21986.90000	      1.58475e-02	
     22018.00000	      1.58716e-02	
     22049.00000	      1.51661e-02	
     22080.00000	      1.38322e-02	
     22110.90000	      1.32448e-02	
     22141.80000	      1.41494e-02	
     22172.70000	      1.52332e-02	
     22203.50000	      1.51422e-02	
     22234.20000	      1.25713e-02	
     22264.90000	      1.34359e-02	
     22295.50000	      1.16374e-02	
     22326.10000	      1.23336e-02	
     22356.60000	      1.45512e-02	
     22387.10000	      1.38532e-02	
     22417.50000	      1.30400e-02	
     22447.90000	      1.23581e-02	
     22478.20000	      1.18394e-02	
     22508.50000	      1.11157e-02	
     22538.70000	      1.27931e-02	
     22568.90000	      1.11140e-02	
     22599.00000	      1.16646e-02	
     22629.10000	      1.19451e-02	
     22659.10000	      1.29517e-02	
     22689.10000	      1.12775e-02	
     22719.00000	      1.09244e-02	
     22748.90000	      1.04965e-02	
     22778.70000	      1.08231e-02	
     22808.40000	      1.23900e-02	
     22838.20000	      8.83806e-03	
     22867.80000	      9.75120e-03	
     22897.40000	      1.14010e-02	
     22927.00000	      9.69940e-03	
     22956.50000	      9.22943e-03	
     22985.90000	      8.03810e-03	
     23015.30000	      8.62592e-03	
     23044.60000	      8.15963e-03	
     23073.90000	      8.78944e-03	
     23103.20000	      9.80040e-03	
     23132.40000	      9.15665e-03	
     23161.50000	      9.39530e-03	
     23190.60000	      8.00866e-03	
     23219.60000	      7.94410e-03	
     23248.60000	      6.22467e-03	
     23277.60000	      7.80356e-03	
     23306.40000	      6.14658e-03	
     23335.30000	      7.72443e-03	
     23364.10000	      9.16891e-03	
     23392.80000	      8.11124e-03	
     23421.50000	      6.69634e-03	
     23450.10000	      6.69632e-03	
     23478.70000	      7.58741e-03	
     23507.30000	      7.68870e-03	
     23535.80000	      7.65918e-03	
     23564.20000	      7.60376e-03	
     23592.60000	      9.52577e-03	
     23621.00000	      8.11950e-03	
     23649.30000	      1.01053e-02	
     23677.60000	      8.81938e-03	
     23705.80000	      1.00514e-02	
     23734.00000	      4.06303e-03	
     23762.20000	      6.40153e-03	
     23790.30000	      5.12521e-03	
     23818.30000	      5.90851e-03	
     23846.30000	      8.26394e-03	
     23874.30000	      8.05854e-03	
     23902.30000	      8.62344e-03	
     23930.20000	      7.43753e-03	
     23958.10000	      6.91508e-03	
     23985.90000	      9.21349e-03	
     24013.70000	      9.18218e-03	
     24041.50000	      1.10519e-02	
     24069.20000	      8.56623e-03	
     24096.90000	      8.78896e-03	
     24124.60000	      6.79264e-03	
     24152.30000	      9.12098e-03	
     24179.90000	      9.62706e-03	
     24207.50000	      1.28086e-02	
     24235.10000	      7.53680e-03	
     24262.60000	      9.91368e-03	
     24290.20000	      7.75589e-03	
     24317.70000	      6.76100e-03	
     24345.20000	      9.26243e-03	
     24372.70000	      7.83464e-03	
     24400.10000	      1.05577e-02	
     24427.60000	      8.52821e-03	
     24455.10000	      9.58515e-03	
     24482.50000	      8.82755e-03	
     24509.90000	      1.01153e-02	
     24537.40000	      9.20601e-03	
     24564.80000	      5.93936e-03	
     24592.30000	      1.14003e-02	
     24619.70000	      8.61493e-03	
     24647.10000	      6.34798e-03	
     24674.60000	      7.20072e-03	
     24702.10000	      4.24505e-03	
     24729.50000	      3.45023e-03	
     24757.00000	      6.74313e-03	
     24784.60000	      7.10487e-03	
     24812.10000	      9.78683e-03	
     24839.70000	      1.09857e-02	
     24867.30000	      8.62003e-03	
     24894.90000	      7.06019e-03	
     24922.50000	      7.56540e-03	
     24950.20000	      9.93169e-03	
     24978.00000	      6.47708e-03	
     25005.70000	      5.93294e-03	
     25033.60000	      9.48958e-03	
     25061.50000	      3.61248e-03	
     25089.40000	      5.53453e-03	
     25117.40000	      8.28094e-03	
     25145.50000	      9.03166e-03	
     25173.60000	      6.72821e-03	
     25201.80000	      7.14027e-03	
     25230.10000	      4.60873e-03	
     25258.40000	      1.86467e-03	
     25286.80000	      5.85352e-03	
     25315.40000	      7.27147e-03	
     25344.00000	      1.14447e-02	
     25372.70000	      9.14000e-03	
     25401.50000	     -8.46019e-04	
     25430.50000	      3.98518e-03	
     25459.50000	     -4.09966e-03	
     25488.70000	      2.86087e-02	
     25518.00000	      6.64411e-03	
     25547.40000	      1.73059e-02	
     25577.00000	     -7.91844e-03	
     25606.70000	     -3.36695e-04	
#time:0.015781
