# The SpeX Prism Spectral Libraries
# spty = Opt:T2,NIR:T2  (Spectral type)
#
#     WAVELENGTH	#            FLUX	
#     (ANGSTROM)	#   (ERG/CM2/S/A)	
################	#################	
      6579.48000	      7.68671e-04	
      6601.32000	      4.70569e-03	
      6623.08000	     -2.37946e-03	
      6644.78000	      6.11386e-03	
      6666.42000	     -1.33574e-02	
      6688.01000	     -7.22537e-03	
      6709.56000	     -1.18702e-02	
      6731.08000	     -1.30234e-02	
      6752.57000	      1.04826e-02	
      6774.04000	      6.58704e-03	
      6795.51000	      1.34056e-02	
      6816.98000	      1.68545e-03	
      6838.46000	      1.07038e-02	
      6859.95000	     -1.18705e-02	
      6881.46000	     -1.16564e-02	
      6903.00000	     -5.22315e-03	
      6924.58000	     -5.36507e-03	
      6946.20000	      4.60422e-03	
      6967.87000	      2.74461e-03	
      6989.60000	      1.29992e-03	
      7011.38000	      1.48886e-04	
      7033.24000	      7.20948e-04	
      7055.16000	     -2.72131e-04	
      7077.17000	      2.31009e-03	
      7099.26000	      2.95670e-03	
      7121.44000	      6.81932e-03	
      7143.71000	      3.18678e-03	
      7166.09000	      2.09155e-03	
      7188.57000	     -1.85705e-03	
      7211.15000	      4.63617e-04	
      7233.86000	     -4.67757e-03	
      7256.68000	      9.41768e-03	
      7279.62000	      9.90758e-04	
      7302.69000	      2.80001e-03	
      7325.89000	      4.82881e-03	
      7349.23000	      8.50599e-03	
      7372.70000	      1.40059e-03	
      7396.31000	      1.28715e-05	
      7420.07000	      4.24226e-03	
      7443.98000	      3.28200e-03	
      7468.04000	      3.18873e-03	
      7492.26000	      1.62445e-03	
      7516.63000	      2.29881e-03	
      7541.16000	     -4.67137e-03	
      7565.86000	     -4.44287e-05	
      7590.72000	     -3.27630e-03	
      7615.75000	     -5.35934e-04	
      7640.95000	      6.65493e-03	
      7666.33000	     -1.25481e-03	
      7691.88000	     -6.94872e-04	
      7717.60000	      2.55449e-04	
      7743.51000	     -9.08851e-04	
      7769.59000	     -2.18644e-03	
      7795.86000	      3.31438e-03	
      7822.31000	      5.16234e-04	
      7848.94000	     -2.69378e-03	
      7875.77000	      3.62239e-04	
      7902.78000	      1.22649e-03	
      7929.98000	     -2.71806e-04	
      7957.37000	      1.35167e-03	
      7984.95000	      1.49743e-03	
      8012.73000	      9.96641e-04	
      8040.70000	      2.54763e-03	
      8068.86000	     -2.32631e-03	
      8097.21000	     -4.83415e-04	
      8125.77000	     -6.43461e-04	
      8154.51000	      3.95921e-03	
      8183.46000	      3.85831e-03	
      8212.60000	      1.91719e-03	
      8241.93000	      2.73538e-03	
      8271.47000	      8.82956e-04	
      8301.20000	      2.46701e-03	
      8331.13000	      3.58576e-03	
      8361.25000	      4.62469e-03	
      8391.57000	      3.12847e-03	
      8422.09000	      4.74593e-03	
      8452.81000	      5.87199e-03	
      8483.72000	      5.76139e-03	
      8514.83000	      5.41380e-03	
      8546.13000	      4.12183e-03	
      8577.63000	      6.36428e-03	
      8609.32000	      8.40108e-03	
      8641.21000	      7.10807e-03	
      8673.29000	      7.74434e-03	
      8705.57000	      7.24257e-03	
      8738.03000	      8.09736e-03	
      8770.69000	      1.09541e-02	
      8803.54000	      1.18581e-02	
      8836.57000	      1.01611e-02	
      8869.80000	      1.33817e-02	
      8903.21000	      1.12072e-02	
      8936.81000	      1.24685e-02	
      8970.59000	      1.57699e-02	
      9004.56000	      1.52646e-02	
      9038.71000	      1.90035e-02	
      9073.04000	      1.91956e-02	
      9107.56000	      1.86277e-02	
      9142.25000	      1.85472e-02	
      9177.12000	      2.44277e-02	
      9212.16000	      2.28006e-02	
      9247.39000	      2.41055e-02	
      9282.78000	      1.97455e-02	
      9318.35000	      1.84997e-02	
      9354.08000	      2.40314e-02	
      9389.99000	      2.42776e-02	
      9426.06000	      2.66534e-02	
      9462.30000	      3.05478e-02	
      9498.71000	      2.59176e-02	
      9535.27000	      2.81309e-02	
      9572.00000	      2.83934e-02	
      9608.89000	      3.02832e-02	
      9645.93000	      3.04971e-02	
      9683.13000	      3.49787e-02	
      9720.48000	      3.49472e-02	
      9757.98000	      3.82880e-02	
      9795.64000	      4.08435e-02	
      9833.44000	      3.90134e-02	
      9871.39000	      4.20847e-02	
      9909.48000	      4.19705e-02	
      9947.72000	      4.16302e-02	
      9986.09000	      4.15977e-02	
     10024.60000	      4.11460e-02	
     10063.30000	      4.27439e-02	
     10102.00000	      4.62025e-02	
     10141.00000	      4.74186e-02	
     10180.00000	      5.04558e-02	
     10219.20000	      5.09339e-02	
     10258.50000	      5.36842e-02	
     10297.90000	      5.59005e-02	
     10337.50000	      5.88808e-02	
     10377.20000	      6.00067e-02	
     10416.90000	      6.01715e-02	
     10456.90000	      6.59124e-02	
     10496.90000	      6.44164e-02	
     10537.00000	      6.75784e-02	
     10577.30000	      6.70598e-02	
     10617.60000	      6.94923e-02	
     10658.10000	      7.09930e-02	
     10698.60000	      7.17018e-02	
     10739.30000	      7.24166e-02	
     10780.10000	      7.43394e-02	
     10820.90000	      7.42520e-02	
     10861.90000	      7.38289e-02	
     10902.90000	      7.16246e-02	
     10944.10000	      6.57542e-02	
     10985.30000	      6.00502e-02	
     11026.60000	      5.74524e-02	
     11068.00000	      5.44680e-02	
     11109.50000	      5.02580e-02	
     11151.10000	      4.61112e-02	
     11192.70000	      4.70975e-02	
     11234.50000	      4.78852e-02	
     11276.30000	      4.88529e-02	
     11318.10000	      4.84378e-02	
     11360.10000	      4.34256e-02	
     11402.10000	      4.56392e-02	
     11444.10000	      4.58541e-02	
     11486.30000	      4.93467e-02	
     11528.50000	      5.10565e-02	
     11570.80000	      4.89493e-02	
     11613.10000	      4.74194e-02	
     11655.40000	      4.67170e-02	
     11697.90000	      4.60711e-02	
     11740.40000	      4.65596e-02	
     11782.90000	      5.03913e-02	
     11825.50000	      5.21481e-02	
     11868.10000	      5.98041e-02	
     11910.80000	      6.44587e-02	
     11953.50000	      6.70444e-02	
     11996.20000	      7.01312e-02	
     12039.00000	      7.36831e-02	
     12081.90000	      7.64726e-02	
     12124.70000	      7.87239e-02	
     12167.60000	      8.23663e-02	
     12210.50000	      8.15653e-02	
     12253.50000	      8.67684e-02	
     12296.50000	      9.01743e-02	
     12339.50000	      9.06139e-02	
     12382.50000	      9.06058e-02	
     12425.60000	      8.94823e-02	
     12468.60000	      8.92003e-02	
     12511.70000	      9.09306e-02	
     12554.90000	      9.36355e-02	
     12598.00000	      9.71668e-02	
     12641.10000	      1.02306e-01	
     12684.30000	      1.02012e-01	
     12727.40000	      1.02028e-01	
     12770.60000	      1.02857e-01	
     12813.80000	      1.01191e-01	
     12856.90000	      9.92779e-02	
     12900.10000	      9.93879e-02	
     12943.30000	      9.86038e-02	
     12986.50000	      9.78792e-02	
     13029.60000	      9.72911e-02	
     13072.80000	      9.56303e-02	
     13116.00000	      9.21288e-02	
     13159.20000	      9.01386e-02	
     13202.30000	      8.69582e-02	
     13245.50000	      8.05305e-02	
     13288.60000	      6.66223e-02	
     13331.70000	      5.01200e-02	
     13374.80000	      3.29801e-02	
     13417.90000	      2.34035e-02	
     13461.00000	      1.86200e-02	
     13504.10000	      1.64135e-02	
     13547.10000	      1.38453e-02	
     13590.20000	      1.36747e-02	
     13633.20000	      1.54071e-02	
     13676.10000	      1.43025e-02	
     13719.10000	      1.51405e-02	
     13762.00000	      1.72448e-02	
     13804.90000	      1.99968e-02	
     13847.80000	      2.09814e-02	
     13890.60000	      1.94030e-02	
     13933.50000	      1.80597e-02	
     13976.20000	      1.43171e-02	
     14019.00000	      1.76968e-02	
     14061.70000	      1.78548e-02	
     14104.40000	      1.49160e-02	
     14147.10000	      1.43140e-02	
     14189.70000	      1.48544e-02	
     14232.20000	      1.52241e-02	
     14274.80000	      1.45140e-02	
     14317.30000	      1.34342e-02	
     14359.70000	      1.57451e-02	
     14402.20000	      1.69284e-02	
     14444.50000	      1.81233e-02	
     14486.90000	      1.84573e-02	
     14529.10000	      2.17098e-02	
     14571.40000	      2.12438e-02	
     14613.60000	      2.49500e-02	
     14655.70000	      2.45763e-02	
     14697.80000	      2.49664e-02	
     14739.90000	      2.76203e-02	
     14781.90000	      2.88149e-02	
     14823.80000	      2.80008e-02	
     14865.70000	      2.84850e-02	
     14907.60000	      3.08150e-02	
     14949.40000	      3.18851e-02	
     14991.10000	      3.35454e-02	
     15032.80000	      3.60131e-02	
     15074.50000	      3.65261e-02	
     15116.10000	      3.78574e-02	
     15157.60000	      4.41962e-02	
     15199.10000	      4.37343e-02	
     15240.50000	      4.75739e-02	
     15281.80000	      4.94870e-02	
     15323.10000	      5.35334e-02	
     15364.40000	      5.27884e-02	
     15405.60000	      5.54952e-02	
     15446.70000	      5.92038e-02	
     15487.80000	      6.16461e-02	
     15528.80000	      6.42130e-02	
     15569.70000	      6.37661e-02	
     15610.60000	      6.42294e-02	
     15651.40000	      6.61063e-02	
     15692.20000	      6.75647e-02	
     15732.90000	      7.27103e-02	
     15773.60000	      7.38839e-02	
     15814.10000	      7.41268e-02	
     15854.70000	      7.61538e-02	
     15895.10000	      7.62747e-02	
     15935.50000	      7.68663e-02	
     15975.80000	      7.97310e-02	
     16016.10000	      7.88373e-02	
     16056.30000	      7.73432e-02	
     16096.40000	      7.40225e-02	
     16136.50000	      7.21447e-02	
     16176.50000	      7.03040e-02	
     16216.50000	      7.04532e-02	
     16256.30000	      6.96974e-02	
     16296.20000	      6.75089e-02	
     16335.90000	      6.60295e-02	
     16375.60000	      6.71581e-02	
     16415.20000	      6.77080e-02	
     16454.80000	      6.75845e-02	
     16494.30000	      6.87937e-02	
     16533.70000	      6.86616e-02	
     16573.00000	      6.86463e-02	
     16612.30000	      6.84133e-02	
     16651.50000	      6.75720e-02	
     16690.70000	      6.28558e-02	
     16729.80000	      6.28670e-02	
     16768.80000	      6.09810e-02	
     16807.80000	      6.39892e-02	
     16846.70000	      6.47823e-02	
     16885.50000	      6.63746e-02	
     16924.30000	      6.43766e-02	
     16963.00000	      6.27494e-02	
     17001.60000	      6.12213e-02	
     17040.20000	      5.94819e-02	
     17078.70000	      5.75307e-02	
     17117.10000	      5.70533e-02	
     17155.50000	      5.49862e-02	
     17193.80000	      5.43828e-02	
     17232.10000	      5.35259e-02	
     17270.20000	      5.20102e-02	
     17308.40000	      5.06436e-02	
     17346.40000	      4.81439e-02	
     17384.40000	      4.72340e-02	
     17422.30000	      4.07771e-02	
     17460.20000	      4.18509e-02	
     17498.00000	      3.94328e-02	
     17535.70000	      3.81629e-02	
     17573.40000	      3.64673e-02	
     17611.00000	      3.47181e-02	
     17648.50000	      3.49265e-02	
     17686.00000	      3.17693e-02	
     17723.40000	      2.73103e-02	
     17760.80000	      2.71438e-02	
     17798.10000	      2.70129e-02	
     17835.30000	      2.51472e-02	
     17872.50000	      2.41535e-02	
     17909.60000	      2.39921e-02	
     17946.60000	      2.43432e-02	
     17983.60000	      2.22687e-02	
     18020.50000	      2.13444e-02	
     18057.40000	      1.98914e-02	
     18094.20000	      2.18285e-02	
     18131.00000	      2.21759e-02	
     18167.70000	      2.25205e-02	
     18204.30000	      2.24614e-02	
     18240.80000	      2.28125e-02	
     18277.40000	      2.20128e-02	
     18313.80000	      2.46094e-02	
     18350.20000	      2.03163e-02	
     18386.50000	      2.04187e-02	
     18422.80000	      2.00579e-02	
     18459.00000	      1.96351e-02	
     18495.20000	      1.90937e-02	
     18531.30000	      1.96401e-02	
     18567.40000	      1.91000e-02	
     18603.30000	      1.58153e-02	
     18639.30000	      1.44616e-02	
     18675.20000	      1.60197e-02	
     18711.00000	      1.85460e-02	
     18746.80000	      1.71114e-02	
     18782.50000	      1.92369e-02	
     18818.10000	      2.02480e-02	
     18853.80000	      2.13632e-02	
     18889.30000	      2.02396e-02	
     18924.80000	      2.32907e-02	
     18960.30000	      2.29419e-02	
     18995.60000	      2.46160e-02	
     19031.00000	      2.33606e-02	
     19066.30000	      2.53903e-02	
     19101.50000	      2.44748e-02	
     19136.70000	      2.70819e-02	
     19171.80000	      2.86777e-02	
     19206.90000	      2.69052e-02	
     19241.90000	      2.44504e-02	
     19276.90000	      2.37845e-02	
     19311.80000	      2.19516e-02	
     19346.70000	      1.88772e-02	
     19381.60000	      1.86540e-02	
     19416.30000	      1.63746e-02	
     19451.10000	      1.86993e-02	
     19485.70000	      1.73223e-02	
     19520.40000	      1.90998e-02	
     19554.90000	      1.88536e-02	
     19589.50000	      1.87717e-02	
     19623.90000	      1.68503e-02	
     19658.40000	      1.87591e-02	
     19692.80000	      1.96147e-02	
     19727.10000	      1.96003e-02	
     19761.40000	      2.01906e-02	
     19795.60000	      1.97328e-02	
     19829.80000	      1.97304e-02	
     19864.00000	      1.94908e-02	
     19898.10000	      2.10203e-02	
     19932.10000	      2.13445e-02	
     19966.10000	      2.17240e-02	
     20000.10000	      2.31695e-02	
     20034.00000	      2.25095e-02	
     20067.80000	      2.41633e-02	
     20101.70000	      2.58697e-02	
     20135.40000	      2.30194e-02	
     20169.20000	      2.67600e-02	
     20202.80000	      2.63545e-02	
     20236.50000	      2.64111e-02	
     20270.00000	      2.82195e-02	
     20303.60000	      2.85837e-02	
     20337.10000	      3.02912e-02	
     20370.50000	      2.98092e-02	
     20403.90000	      2.94726e-02	
     20437.30000	      3.19791e-02	
     20470.60000	      3.20631e-02	
     20503.90000	      3.20612e-02	
     20537.10000	      3.31619e-02	
     20570.30000	      3.31725e-02	
     20603.40000	      3.42274e-02	
     20636.50000	      3.54906e-02	
     20669.50000	      3.52051e-02	
     20702.50000	      3.60720e-02	
     20735.50000	      3.62492e-02	
     20768.40000	      3.59494e-02	
     20801.20000	      3.69848e-02	
     20834.10000	      3.66641e-02	
     20866.80000	      3.62718e-02	
     20899.60000	      3.70927e-02	
     20932.20000	      3.60894e-02	
     20964.90000	      3.66895e-02	
     20997.50000	      3.78458e-02	
     21030.00000	      3.74865e-02	
     21062.50000	      3.69675e-02	
     21095.00000	      3.70830e-02	
     21127.40000	      3.84082e-02	
     21159.70000	      3.73591e-02	
     21192.00000	      3.74643e-02	
     21224.30000	      3.77032e-02	
     21256.50000	      3.66041e-02	
     21288.70000	      3.73325e-02	
     21320.80000	      3.65168e-02	
     21352.90000	      3.60222e-02	
     21385.00000	      3.74651e-02	
     21417.00000	      3.63263e-02	
     21448.90000	      3.54124e-02	
     21480.80000	      3.55704e-02	
     21512.70000	      3.47498e-02	
     21544.50000	      3.63656e-02	
     21576.20000	      3.37251e-02	
     21607.90000	      3.41691e-02	
     21639.60000	      3.30297e-02	
     21671.20000	      3.34835e-02	
     21702.80000	      3.29286e-02	
     21734.30000	      3.23939e-02	
     21765.80000	      3.24938e-02	
     21797.20000	      3.13638e-02	
     21828.60000	      3.06676e-02	
     21859.90000	      2.95172e-02	
     21891.20000	      2.91249e-02	
     21922.40000	      2.78093e-02	
     21953.60000	      2.81321e-02	
     21984.80000	      2.43431e-02	
     22015.90000	      2.51957e-02	
     22046.90000	      2.24505e-02	
     22077.90000	      2.13565e-02	
     22108.80000	      2.19242e-02	
     22139.70000	      2.40118e-02	
     22170.50000	      2.29606e-02	
     22201.30000	      2.21285e-02	
     22232.10000	      2.22983e-02	
     22262.80000	      2.31113e-02	
     22293.40000	      2.31332e-02	
     22324.00000	      2.15666e-02	
     22354.50000	      2.26341e-02	
     22385.00000	      2.14464e-02	
     22415.40000	      2.10799e-02	
     22445.80000	      2.10964e-02	
     22476.20000	      2.05252e-02	
     22506.40000	      1.93562e-02	
     22536.70000	      2.02216e-02	
     22566.80000	      1.87477e-02	
     22597.00000	      2.04799e-02	
     22627.00000	      1.90705e-02	
     22657.10000	      1.93636e-02	
     22687.00000	      1.90067e-02	
     22717.00000	      1.74640e-02	
     22746.80000	      1.81699e-02	
     22776.60000	      1.84043e-02	
     22806.40000	      1.80328e-02	
     22836.10000	      1.75166e-02	
     22865.80000	      1.75095e-02	
     22895.40000	      1.75411e-02	
     22924.90000	      1.54974e-02	
     22954.40000	      1.34870e-02	
     22983.90000	      1.30916e-02	
     23013.30000	      1.31300e-02	
     23042.60000	      1.52713e-02	
     23071.90000	      1.41082e-02	
     23101.20000	      1.54765e-02	
     23130.40000	      1.55478e-02	
     23159.50000	      1.44881e-02	
     23188.60000	      1.27706e-02	
     23217.60000	      1.28154e-02	
     23246.60000	      1.19026e-02	
     23275.60000	      1.11588e-02	
     23304.50000	      1.11820e-02	
     23333.30000	      1.10753e-02	
     23362.10000	      1.18995e-02	
     23390.80000	      1.21076e-02	
     23419.50000	      1.11903e-02	
     23448.20000	      1.14156e-02	
     23476.80000	      1.23400e-02	
     23505.30000	      1.20778e-02	
     23533.80000	      1.18423e-02	
     23562.30000	      1.19249e-02	
     23590.70000	      1.37948e-02	
     23619.10000	      1.35212e-02	
     23647.40000	      1.28542e-02	
     23675.60000	      1.30628e-02	
     23703.90000	      1.22719e-02	
     23732.10000	      1.19000e-02	
     23760.20000	      1.19158e-02	
     23788.30000	      1.07003e-02	
     23816.40000	      1.00617e-02	
     23844.40000	      1.34653e-02	
     23872.40000	      1.22692e-02	
     23900.30000	      1.39848e-02	
     23928.30000	      1.20994e-02	
     23956.10000	      1.46223e-02	
     23984.00000	      1.34137e-02	
     24011.80000	      1.48819e-02	
     24039.60000	      1.50222e-02	
     24067.30000	      1.32163e-02	
     24095.00000	      1.38124e-02	
     24122.70000	      1.56843e-02	
     24150.40000	      1.50851e-02	
     24178.00000	      1.38256e-02	
     24205.60000	      1.47468e-02	
     24233.20000	      1.44087e-02	
     24260.70000	      1.48651e-02	
     24288.30000	      1.35857e-02	
     24315.80000	      1.52943e-02	
     24343.30000	      1.61086e-02	
     24370.80000	      1.41648e-02	
     24398.30000	      1.41031e-02	
     24425.70000	      1.33533e-02	
     24453.20000	      1.42549e-02	
     24480.60000	      1.41810e-02	
     24508.10000	      1.54592e-02	
     24535.50000	      1.37417e-02	
     24562.90000	      1.26183e-02	
     24590.40000	      1.12897e-02	
     24617.80000	      1.44631e-02	
     24645.30000	      1.29461e-02	
     24672.70000	      1.40010e-02	
     24700.20000	      1.31758e-02	
     24727.70000	      1.14349e-02	
     24755.20000	      1.12921e-02	
     24782.70000	      1.29521e-02	
     24810.20000	      1.32443e-02	
     24837.80000	      1.46786e-02	
     24865.40000	      1.08862e-02	
     24893.00000	      1.29654e-02	
     24920.60000	      1.18215e-02	
     24948.30000	      1.36533e-02	
     24976.10000	      1.33444e-02	
     25003.80000	      1.36348e-02	
     25031.70000	      8.03227e-03	
     25059.50000	      9.81309e-03	
     25087.50000	      1.11310e-02	
     25115.50000	      1.57277e-02	
     25143.50000	      9.18667e-03	
     25171.60000	      1.12322e-02	
     25199.80000	      8.22367e-03	
     25228.10000	      1.27064e-02	
     25256.50000	      9.85932e-03	
     25284.90000	      8.28446e-03	
     25313.40000	      1.07641e-02	
     25342.00000	      1.77985e-02	
     25370.70000	      9.31729e-03	
     25399.60000	      3.79910e-03	
     25428.50000	      7.13629e-03	
     25457.50000	      9.97739e-03	
     25486.70000	      1.65468e-02	
     25516.00000	      2.08203e-02	
     25545.40000	      1.33416e-02	
     25574.90000	      3.32885e-03	
     25604.60000	      1.20124e-02	
#time:0.015693
