# The SpeX Prism Spectral Libraries
# spty = Opt:M4V  (Spectral type)
#
#     WAVELENGTH	#           FLUX	
#     (ANGSTROM)	#  (ERG/CM2/S/A)	
################	################	
      6583.05000	     2.92569e-02	
      6604.88000	     2.61647e-02	
      6626.63000	     2.63450e-02	
      6648.32000	     2.57969e-02	
      6669.95000	     2.48088e-02	
      6691.53000	     2.36319e-02	
      6713.08000	     2.43421e-02	
      6734.59000	     2.52564e-02	
      6756.08000	     2.51677e-02	
      6777.55000	     2.48964e-02	
      6799.02000	     2.60435e-02	
      6820.49000	     2.63346e-02	
      6841.97000	     2.59386e-02	
      6863.46000	     2.77272e-02	
      6884.98000	     2.95779e-02	
      6906.52000	     3.32247e-02	
      6928.11000	     3.62119e-02	
      6949.74000	     3.99995e-02	
      6971.42000	     4.37778e-02	
      6993.15000	     4.67719e-02	
      7014.95000	     4.80090e-02	
      7036.81000	     4.66433e-02	
      7058.75000	     4.35135e-02	
      7080.77000	     3.73301e-02	
      7102.87000	     3.24417e-02	
      7125.07000	     3.05037e-02	
      7147.36000	     2.94948e-02	
      7169.75000	     3.08343e-02	
      7192.25000	     3.37347e-02	
      7214.85000	     3.71156e-02	
      7237.58000	     4.16724e-02	
      7260.42000	     4.59021e-02	
      7283.38000	     5.16824e-02	
      7306.47000	     5.65083e-02	
      7329.69000	     6.10384e-02	
      7353.05000	     6.55464e-02	
      7376.55000	     6.91699e-02	
      7400.18000	     7.19052e-02	
      7423.97000	     7.40387e-02	
      7447.90000	     7.57588e-02	
      7471.99000	     7.74372e-02	
      7496.23000	     7.93188e-02	
      7520.63000	     8.04375e-02	
      7545.19000	     8.03064e-02	
      7569.91000	     7.90184e-02	
      7594.80000	     7.57045e-02	
      7619.86000	     6.80668e-02	
      7645.08000	     6.02970e-02	
      7670.49000	     5.60985e-02	
      7696.06000	     5.55057e-02	
      7721.82000	     5.62069e-02	
      7747.75000	     5.73133e-02	
      7773.87000	     5.86040e-02	
      7800.16000	     5.96302e-02	
      7826.64000	     6.22364e-02	
      7853.31000	     6.45179e-02	
      7880.16000	     6.64272e-02	
      7907.21000	     6.75729e-02	
      7934.44000	     7.17566e-02	
      7961.86000	     7.38117e-02	
      7989.47000	     7.67998e-02	
      8017.28000	     8.06864e-02	
      8045.28000	     8.46221e-02	
      8073.47000	     8.76724e-02	
      8101.86000	     9.06455e-02	
      8130.45000	     9.04949e-02	
      8159.22000	     8.98279e-02	
      8188.20000	     8.89729e-02	
      8217.37000	     8.96836e-02	
      8246.74000	     9.08889e-02	
      8276.31000	     9.13554e-02	
      8306.07000	     9.00783e-02	
      8336.03000	     8.81678e-02	
      8366.19000	     8.70475e-02	
      8396.54000	     8.54490e-02	
      8427.09000	     8.12785e-02	
      8457.84000	     7.84825e-02	
      8488.79000	     7.65046e-02	
      8519.93000	     7.60547e-02	
      8551.26000	     7.75002e-02	
      8582.79000	     7.96894e-02	
      8614.52000	     8.07168e-02	
      8646.44000	     8.15047e-02	
      8678.55000	     8.25485e-02	
      8710.85000	     8.46908e-02	
      8743.35000	     8.59195e-02	
      8776.04000	     8.86920e-02	
      8808.92000	     9.04621e-02	
      8841.98000	     8.85891e-02	
      8875.24000	     8.79540e-02	
      8908.68000	     8.72371e-02	
      8942.31000	     8.96641e-02	
      8976.13000	     9.11923e-02	
      9010.12000	     9.14880e-02	
      9044.30000	     9.31481e-02	
      9078.67000	     9.43917e-02	
      9113.21000	     9.81924e-02	
      9147.93000	     1.00000e-01	
      9182.83000	     9.96903e-02	
      9217.90000	     9.77095e-02	
      9253.15000	     9.51897e-02	
      9288.58000	     9.36232e-02	
      9324.17000	     9.36576e-02	
      9359.94000	     9.37964e-02	
      9395.87000	     9.35702e-02	
      9431.97000	     9.46413e-02	
      9468.24000	     9.64668e-02	
      9504.67000	     9.62796e-02	
      9541.26000	     9.46795e-02	
      9578.01000	     9.37028e-02	
      9614.92000	     9.48488e-02	
      9651.99000	     9.63864e-02	
      9689.22000	     9.64972e-02	
      9726.59000	     9.61836e-02	
      9764.12000	     9.56633e-02	
      9801.80000	     9.52443e-02	
      9839.63000	     9.49565e-02	
      9877.60000	     9.33993e-02	
      9915.72000	     9.26543e-02	
      9953.97000	     9.26434e-02	
      9992.37000	     9.33658e-02	
     10030.90000	     9.15403e-02	
     10069.60000	     9.19826e-02	
     10108.40000	     9.22884e-02	
     10147.30000	     9.35007e-02	
     10186.40000	     9.34212e-02	
     10225.60000	     9.30849e-02	
     10264.90000	     9.32542e-02	
     10304.40000	     9.24827e-02	
     10344.00000	     9.28111e-02	
     10383.60000	     9.25935e-02	
     10423.50000	     9.39166e-02	
     10463.40000	     9.39197e-02	
     10503.40000	     9.34898e-02	
     10543.60000	     9.27089e-02	
     10583.80000	     9.27635e-02	
     10624.20000	     9.24944e-02	
     10664.70000	     9.28298e-02	
     10705.30000	     9.21699e-02	
     10745.90000	     9.25685e-02	
     10786.70000	     9.22112e-02	
     10827.60000	     9.31645e-02	
     10868.60000	     9.32792e-02	
     10909.60000	     9.07953e-02	
     10950.80000	     8.92615e-02	
     10992.10000	     8.93169e-02	
     11033.40000	     9.01688e-02	
     11074.80000	     8.94800e-02	
     11116.30000	     8.94308e-02	
     11157.90000	     8.91609e-02	
     11199.50000	     8.85290e-02	
     11241.30000	     8.79080e-02	
     11283.10000	     8.74735e-02	
     11325.00000	     8.51526e-02	
     11366.90000	     8.35814e-02	
     11408.90000	     8.33794e-02	
     11451.00000	     8.40994e-02	
     11493.20000	     8.60326e-02	
     11535.40000	     8.64461e-02	
     11577.70000	     8.59663e-02	
     11620.00000	     8.52509e-02	
     11662.40000	     8.49849e-02	
     11704.80000	     8.40620e-02	
     11747.30000	     8.33981e-02	
     11789.80000	     8.27553e-02	
     11832.40000	     8.26460e-02	
     11875.10000	     8.26187e-02	
     11917.70000	     8.16358e-02	
     11960.50000	     8.12769e-02	
     12003.20000	     8.12434e-02	
     12046.00000	     8.13307e-02	
     12088.90000	     8.11264e-02	
     12131.70000	     8.12699e-02	
     12174.60000	     8.09610e-02	
     12217.60000	     8.15211e-02	
     12260.50000	     8.08946e-02	
     12303.50000	     7.98977e-02	
     12346.50000	     7.96098e-02	
     12389.60000	     7.82633e-02	
     12432.60000	     7.77149e-02	
     12475.70000	     7.77033e-02	
     12518.80000	     7.77243e-02	
     12561.90000	     7.74356e-02	
     12605.00000	     7.74843e-02	
     12648.20000	     7.72629e-02	
     12691.30000	     7.71350e-02	
     12734.50000	     7.80129e-02	
     12777.60000	     7.65570e-02	
     12820.80000	     7.47526e-02	
     12864.00000	     7.50163e-02	
     12907.20000	     7.55881e-02	
     12950.30000	     7.54632e-02	
     12993.50000	     7.53977e-02	
     13036.70000	     7.48197e-02	
     13079.90000	     7.38706e-02	
     13123.00000	     7.34839e-02	
     13166.20000	     7.34724e-02	
     13209.40000	     7.35489e-02	
     13252.50000	     7.32094e-02	
     13295.60000	     7.19275e-02	
     13338.80000	     7.02007e-02	
     13381.90000	     6.89056e-02	
     13425.00000	     6.79203e-02	
     13468.10000	     6.73615e-02	
     13511.10000	     6.68789e-02	
     13554.20000	     6.56453e-02	
     13597.20000	     6.52475e-02	
     13640.20000	     6.44473e-02	
     13683.10000	     6.43084e-02	
     13726.10000	     6.39419e-02	
     13769.00000	     6.38892e-02	
     13811.90000	     6.37397e-02	
     13854.80000	     6.37518e-02	
     13897.60000	     6.26164e-02	
     13940.50000	     6.24730e-02	
     13983.20000	     6.12801e-02	
     14026.00000	     6.13592e-02	
     14068.70000	     6.10536e-02	
     14111.40000	     6.05884e-02	
     14154.00000	     6.01012e-02	
     14196.60000	     5.97537e-02	
     14239.20000	     5.96617e-02	
     14281.70000	     5.94655e-02	
     14324.20000	     5.91833e-02	
     14366.70000	     5.88758e-02	
     14409.10000	     5.92031e-02	
     14451.40000	     5.87995e-02	
     14493.80000	     5.87843e-02	
     14536.00000	     5.85149e-02	
     14578.30000	     5.79252e-02	
     14620.50000	     5.76505e-02	
     14662.60000	     5.70953e-02	
     14704.70000	     5.63665e-02	
     14746.70000	     5.66405e-02	
     14788.70000	     5.64002e-02	
     14830.70000	     5.60756e-02	
     14872.60000	     5.59039e-02	
     14914.40000	     5.67796e-02	
     14956.20000	     5.63239e-02	
     14997.90000	     5.57732e-02	
     15039.60000	     5.55746e-02	
     15081.30000	     5.52104e-02	
     15122.80000	     5.54973e-02	
     15164.40000	     5.56636e-02	
     15205.80000	     5.54409e-02	
     15247.20000	     5.55664e-02	
     15288.60000	     5.50683e-02	
     15329.90000	     5.48451e-02	
     15371.10000	     5.48241e-02	
     15412.30000	     5.47391e-02	
     15453.40000	     5.44450e-02	
     15494.50000	     5.46383e-02	
     15535.50000	     5.43876e-02	
     15576.40000	     5.40987e-02	
     15617.30000	     5.41642e-02	
     15658.10000	     5.40976e-02	
     15698.90000	     5.34564e-02	
     15739.60000	     5.34084e-02	
     15780.20000	     5.35549e-02	
     15820.80000	     5.33919e-02	
     15861.30000	     5.30225e-02	
     15901.70000	     5.29934e-02	
     15942.10000	     5.32261e-02	
     15982.40000	     5.34155e-02	
     16022.70000	     5.29451e-02	
     16062.90000	     5.27883e-02	
     16103.00000	     5.19793e-02	
     16143.10000	     5.16380e-02	
     16183.00000	     5.17311e-02	
     16223.00000	     5.11971e-02	
     16262.90000	     5.14812e-02	
     16302.70000	     5.16713e-02	
     16342.40000	     5.16076e-02	
     16382.10000	     5.13973e-02	
     16421.70000	     5.09822e-02	
     16461.20000	     5.13346e-02	
     16500.70000	     5.14813e-02	
     16540.10000	     5.11661e-02	
     16579.50000	     5.09997e-02	
     16618.70000	     5.05391e-02	
     16657.90000	     4.99266e-02	
     16697.10000	     4.96248e-02	
     16736.20000	     4.92296e-02	
     16775.20000	     4.89581e-02	
     16814.10000	     4.92867e-02	
     16853.00000	     4.93347e-02	
     16891.90000	     4.89102e-02	
     16930.60000	     4.85995e-02	
     16969.30000	     4.86030e-02	
     17007.90000	     4.82652e-02	
     17046.50000	     4.74576e-02	
     17085.00000	     4.67292e-02	
     17123.40000	     4.61209e-02	
     17161.80000	     4.57420e-02	
     17200.10000	     4.58578e-02	
     17238.30000	     4.54732e-02	
     17276.50000	     4.49161e-02	
     17314.60000	     4.45606e-02	
     17352.60000	     4.40138e-02	
     17390.60000	     4.38151e-02	
     17428.50000	     4.35542e-02	
     17466.40000	     4.32572e-02	
     17504.10000	     4.25406e-02	
     17541.90000	     4.16941e-02	
     17579.50000	     4.10368e-02	
     17617.10000	     4.11678e-02	
     17654.70000	     4.06537e-02	
     17692.10000	     4.00204e-02	
     17729.50000	     3.95991e-02	
     17766.90000	     3.92594e-02	
     17804.20000	     3.91501e-02	
     17841.40000	     3.89389e-02	
     17878.50000	     3.81933e-02	
     17915.60000	     3.76729e-02	
     17952.70000	     3.77370e-02	
     17989.70000	     3.72096e-02	
     18026.60000	     3.67500e-02	
     18063.40000	     3.62449e-02	
     18100.20000	     3.64606e-02	
     18137.00000	     3.59026e-02	
     18173.60000	     3.52244e-02	
     18210.30000	     3.51694e-02	
     18246.80000	     3.46803e-02	
     18283.30000	     3.49093e-02	
     18319.80000	     3.39374e-02	
     18356.10000	     3.33860e-02	
     18392.50000	     3.29931e-02	
     18428.70000	     3.22282e-02	
     18464.90000	     3.22526e-02	
     18501.10000	     3.19221e-02	
     18537.20000	     3.11405e-02	
     18573.20000	     3.13822e-02	
     18609.20000	     3.13535e-02	
     18645.10000	     3.11662e-02	
     18681.00000	     3.10218e-02	
     18716.80000	     3.10038e-02	
     18752.60000	     3.07549e-02	
     18788.30000	     3.05102e-02	
     18824.00000	     3.09390e-02	
     18859.60000	     3.12228e-02	
     18895.10000	     3.10109e-02	
     18930.60000	     3.07790e-02	
     18966.00000	     3.08026e-02	
     19001.40000	     3.12117e-02	
     19036.80000	     3.05188e-02	
     19072.00000	     3.04054e-02	
     19107.30000	     3.00078e-02	
     19142.40000	     3.02472e-02	
     19177.60000	     2.97042e-02	
     19212.60000	     3.01419e-02	
     19247.70000	     2.91103e-02	
     19282.60000	     2.86141e-02	
     19317.50000	     2.82818e-02	
     19352.40000	     2.84920e-02	
     19387.20000	     2.87286e-02	
     19422.00000	     2.75424e-02	
     19456.70000	     2.67694e-02	
     19491.40000	     2.63417e-02	
     19526.00000	     2.71354e-02	
     19560.60000	     2.81003e-02	
     19595.10000	     2.84339e-02	
     19629.60000	     2.85710e-02	
     19664.00000	     2.83749e-02	
     19698.40000	     2.74226e-02	
     19732.70000	     2.62935e-02	
     19767.00000	     2.52204e-02	
     19801.20000	     2.48228e-02	
     19835.40000	     2.51265e-02	
     19869.50000	     2.54876e-02	
     19903.60000	     2.55714e-02	
     19937.70000	     2.60895e-02	
     19971.70000	     2.61267e-02	
     20005.60000	     2.65685e-02	
     20039.50000	     2.68684e-02	
     20073.40000	     2.65635e-02	
     20107.20000	     2.61665e-02	
     20140.90000	     2.63379e-02	
     20174.70000	     2.62011e-02	
     20208.30000	     2.61143e-02	
     20241.90000	     2.58470e-02	
     20275.50000	     2.58586e-02	
     20309.10000	     2.58958e-02	
     20342.50000	     2.61399e-02	
     20376.00000	     2.59701e-02	
     20409.40000	     2.58638e-02	
     20442.70000	     2.56688e-02	
     20476.00000	     2.54512e-02	
     20509.30000	     2.54009e-02	
     20542.50000	     2.53331e-02	
     20575.70000	     2.51144e-02	
     20608.80000	     2.47927e-02	
     20641.90000	     2.48628e-02	
     20674.90000	     2.48135e-02	
     20707.90000	     2.46088e-02	
     20740.90000	     2.45944e-02	
     20773.80000	     2.46053e-02	
     20806.60000	     2.45627e-02	
     20839.40000	     2.44300e-02	
     20872.20000	     2.44130e-02	
     20904.90000	     2.43067e-02	
     20937.60000	     2.43755e-02	
     20970.20000	     2.41415e-02	
     21002.80000	     2.40344e-02	
     21035.30000	     2.40255e-02	
     21067.80000	     2.38055e-02	
     21100.20000	     2.38777e-02	
     21132.70000	     2.37796e-02	
     21165.00000	     2.35004e-02	
     21197.30000	     2.36480e-02	
     21229.60000	     2.37999e-02	
     21261.80000	     2.37200e-02	
     21294.00000	     2.35540e-02	
     21326.10000	     2.35036e-02	
     21358.20000	     2.34034e-02	
     21390.20000	     2.33900e-02	
     21422.20000	     2.34463e-02	
     21454.10000	     2.33068e-02	
     21486.00000	     2.34071e-02	
     21517.90000	     2.32231e-02	
     21549.70000	     2.32449e-02	
     21581.40000	     2.32054e-02	
     21613.10000	     2.30547e-02	
     21644.80000	     2.29011e-02	
     21676.40000	     2.28593e-02	
     21707.90000	     2.27300e-02	
     21739.50000	     2.25919e-02	
     21770.90000	     2.26009e-02	
     21802.40000	     2.26188e-02	
     21833.70000	     2.26117e-02	
     21865.00000	     2.25275e-02	
     21896.30000	     2.23426e-02	
     21927.50000	     2.25628e-02	
     21958.70000	     2.25147e-02	
     21989.80000	     2.24170e-02	
     22020.90000	     2.15889e-02	
     22052.00000	     2.09449e-02	
     22082.90000	     2.07729e-02	
     22113.90000	     2.10882e-02	
     22144.70000	     2.17198e-02	
     22175.60000	     2.20161e-02	
     22206.40000	     2.19400e-02	
     22237.10000	     2.19000e-02	
     22267.80000	     2.18076e-02	
     22298.40000	     2.17073e-02	
     22329.00000	     2.16353e-02	
     22359.50000	     2.15204e-02	
     22390.00000	     2.16859e-02	
     22420.40000	     2.15432e-02	
     22450.80000	     2.14723e-02	
     22481.10000	     2.15924e-02	
     22511.40000	     2.14602e-02	
     22541.60000	     2.14304e-02	
     22571.80000	     2.11563e-02	
     22601.90000	     2.07982e-02	
     22631.90000	     2.03824e-02	
     22662.00000	     2.04356e-02	
     22691.90000	     2.05241e-02	
     22721.80000	     2.08521e-02	
     22751.70000	     2.06790e-02	
     22781.50000	     2.07132e-02	
     22811.30000	     2.05507e-02	
     22841.00000	     2.04263e-02	
     22870.60000	     2.03300e-02	
     22900.20000	     2.00631e-02	
     22929.70000	     1.92287e-02	
     22959.20000	     1.88796e-02	
     22988.70000	     1.87307e-02	
     23018.10000	     1.90635e-02	
     23047.40000	     1.92973e-02	
     23076.70000	     1.91685e-02	
     23105.90000	     1.92500e-02	
     23135.10000	     1.91478e-02	
     23164.30000	     1.89413e-02	
     23193.30000	     1.84712e-02	
     23222.40000	     1.79648e-02	
     23251.40000	     1.77222e-02	
     23280.30000	     1.75118e-02	
     23309.20000	     1.78840e-02	
     23338.00000	     1.75377e-02	
     23366.80000	     1.72779e-02	
     23395.50000	     1.74412e-02	
     23424.20000	     1.75338e-02	
     23452.80000	     1.78590e-02	
     23481.40000	     1.77752e-02	
     23510.00000	     1.71209e-02	
     23538.50000	     1.67818e-02	
     23566.90000	     1.66316e-02	
     23595.30000	     1.68196e-02	
     23623.70000	     1.69721e-02	
     23652.00000	     1.70136e-02	
     23680.30000	     1.69898e-02	
     23708.50000	     1.69871e-02	
     23736.70000	     1.70312e-02	
     23764.80000	     1.64595e-02	
     23792.90000	     1.66248e-02	
     23821.00000	     1.62020e-02	
     23849.00000	     1.57109e-02	
     23877.00000	     1.57918e-02	
     23904.90000	     1.58380e-02	
     23932.80000	     1.59383e-02	
     23960.70000	     1.57889e-02	
     23988.50000	     1.57864e-02	
     24016.30000	     1.56969e-02	
     24044.10000	     1.56295e-02	
     24071.80000	     1.55143e-02	
     24099.50000	     1.52336e-02	
     24127.20000	     1.50258e-02	
     24154.90000	     1.47215e-02	
     24182.50000	     1.45332e-02	
     24210.10000	     1.47188e-02	
     24237.70000	     1.46371e-02	
     24265.20000	     1.46972e-02	
     24292.80000	     1.46844e-02	
     24320.30000	     1.45078e-02	
     24347.80000	     1.43939e-02	
     24375.30000	     1.42796e-02	
     24402.70000	     1.42107e-02	
     24430.20000	     1.40246e-02	
     24457.70000	     1.36012e-02	
     24485.10000	     1.35778e-02	
     24512.50000	     1.32763e-02	
     24540.00000	     1.35071e-02	
     24567.40000	     1.35784e-02	
     24594.80000	     1.32119e-02	
     24622.30000	     1.32456e-02	
     24649.70000	     1.31623e-02	
     24677.20000	     1.33251e-02	
     24704.70000	     1.29731e-02	
     24732.10000	     1.28902e-02	
     24759.60000	     1.29047e-02	
     24787.20000	     1.27175e-02	
     24814.70000	     1.26511e-02	
     24842.30000	     1.25147e-02	
     24869.90000	     1.24819e-02	
     24897.50000	     1.24758e-02	
     24925.10000	     1.23373e-02	
     24952.80000	     1.23280e-02	
     24980.60000	     1.21777e-02	
     25008.40000	     1.21059e-02	
     25036.20000	     1.19616e-02	
     25064.10000	     1.19119e-02	
     25092.00000	     1.19150e-02	
     25120.00000	     1.17469e-02	
     25148.10000	     1.13984e-02	
     25176.20000	     1.13996e-02	
     25204.40000	     1.14277e-02	
     25232.70000	     1.14231e-02	
     25261.10000	     1.13133e-02	
     25289.50000	     1.10398e-02	
     25318.10000	     1.11427e-02	
     25346.70000	     1.08448e-02	
     25375.40000	     1.10774e-02	
     25404.30000	     1.11042e-02	
     25433.20000	     1.09165e-02	
     25462.30000	     1.01694e-02	
     25491.50000	     1.06051e-02	
     25520.80000	     9.98073e-03	
     25550.20000	     1.03156e-02	
     25579.80000	     1.03455e-02	
     25609.50000	     1.09589e-02	
#time:0.015638
