# The SpeX Prism Spectral Libraries
# spty = Opt:L5,NIR:L6  (Spectral type)
#
#     WAVELENGTH	#            FLUX	
#     (ANGSTROM)	#   (ERG/CM2/S/A)	
################	#################	
      6480.62000	      6.35323e-02	
      6502.92000	      3.31099e-02	
      6525.11000	     -4.28769e-02	
      6547.18000	      8.65832e-02	
      6569.16000	      9.07340e-02	
      6591.04000	      3.98735e-02	
      6612.84000	      5.97634e-02	
      6634.57000	      8.29969e-02	
      6656.23000	      1.49753e-02	
      6677.85000	     -1.89441e-02	
      6699.41000	     -3.97273e-02	
      6720.94000	      3.86825e-02	
      6742.45000	      7.85497e-02	
      6763.93000	      4.04445e-02	
      6785.40000	      1.87066e-02	
      6806.87000	     -2.92286e-02	
      6828.34000	      4.58641e-03	
      6849.82000	     -3.30178e-03	
      6871.33000	      2.28588e-02	
      6892.85000	      1.18806e-02	
      6914.41000	     -5.61323e-03	
      6936.01000	      2.73531e-02	
      6957.66000	      1.69513e-02	
      6979.36000	      1.13448e-02	
      7001.11000	      2.52200e-04	
      7022.93000	      3.36426e-02	
      7044.83000	     -2.21979e-04	
      7066.79000	      2.57305e-02	
      7088.84000	      3.06033e-02	
      7110.98000	      3.29162e-02	
      7133.21000	      3.67317e-02	
      7155.54000	      3.74579e-02	
      7177.96000	      1.70867e-02	
      7200.50000	     -6.27459e-03	
      7223.15000	      3.90211e-02	
      7245.91000	      8.87089e-04	
      7268.80000	      2.55833e-02	
      7291.81000	      3.19369e-02	
      7314.95000	      6.08482e-03	
      7338.22000	      1.04156e-02	
      7361.62000	      2.99426e-02	
      7385.17000	      7.06014e-03	
      7408.86000	      1.67303e-02	
      7432.70000	      3.37511e-03	
      7456.69000	      2.56493e-02	
      7480.83000	      2.69170e-02	
      7505.13000	      9.54375e-03	
      7529.59000	      7.84241e-03	
      7554.21000	      1.38620e-02	
      7578.99000	      7.24264e-03	
      7603.94000	      4.26904e-03	
      7629.06000	      7.31896e-03	
      7654.35000	      1.46198e-02	
      7679.82000	      6.01657e-03	
      7705.46000	     -1.82109e-04	
      7731.28000	     -5.26906e-03	
      7757.28000	     -7.58114e-03	
      7783.46000	      1.98892e-02	
      7809.83000	     -1.00146e-02	
      7836.37000	     -1.23086e-04	
      7863.11000	      7.20654e-03	
      7890.03000	      3.25072e-03	
      7917.14000	      3.15908e-02	
      7944.44000	      5.67878e-03	
      7971.94000	      7.16213e-03	
      7999.62000	      1.22069e-02	
      8027.50000	      5.56808e-03	
      8055.57000	      1.19903e-02	
      8083.83000	      1.83511e-02	
      8112.29000	      1.59541e-02	
      8140.95000	      1.85277e-02	
      8169.80000	      1.44772e-02	
      8198.84000	      1.71961e-02	
      8228.09000	      1.65526e-02	
      8257.53000	      1.86579e-02	
      8287.17000	      9.19017e-03	
      8317.00000	      1.83143e-02	
      8347.04000	      2.07915e-02	
      8377.26000	      1.31182e-02	
      8407.69000	      1.12051e-02	
      8438.31000	      1.82465e-02	
      8469.13000	      1.13373e-02	
      8500.15000	      1.34342e-02	
      8531.36000	      1.78253e-02	
      8562.77000	      1.28618e-02	
      8594.37000	      1.24253e-02	
      8626.17000	      9.18865e-03	
      8658.16000	      7.45781e-03	
      8690.34000	      1.62608e-02	
      8722.71000	      8.79657e-03	
      8755.28000	      1.37806e-02	
      8788.04000	      8.15138e-03	
      8820.99000	      1.47799e-02	
      8854.12000	      1.52295e-02	
      8887.45000	      2.25431e-02	
      8920.96000	      2.12287e-02	
      8954.65000	      9.62982e-03	
      8988.54000	      2.06896e-02	
      9022.60000	      1.92101e-02	
      9056.85000	      2.52504e-02	
      9091.28000	      2.16799e-02	
      9125.88000	      2.66507e-02	
      9160.67000	      3.03114e-02	
      9195.63000	      2.92956e-02	
      9230.77000	      3.03910e-02	
      9266.09000	      2.17661e-02	
      9301.57000	      2.95213e-02	
      9337.23000	      3.37457e-02	
      9373.06000	      3.62847e-02	
      9409.05000	      3.58052e-02	
      9445.21000	      4.43223e-02	
      9481.54000	      4.07996e-02	
      9518.03000	      3.93634e-02	
      9554.68000	      4.73863e-02	
      9591.49000	      4.08546e-02	
      9628.46000	      4.04455e-02	
      9665.59000	      4.43032e-02	
      9702.87000	      5.21953e-02	
      9740.30000	      5.08262e-02	
      9777.88000	      5.52739e-02	
      9815.61000	      5.30375e-02	
      9853.49000	      5.33109e-02	
      9891.52000	      4.27847e-02	
      9929.69000	      3.97767e-02	
      9968.00000	      3.31402e-02	
     10006.40000	      3.29037e-02	
     10045.00000	      3.40608e-02	
     10083.80000	      3.70739e-02	
     10122.60000	      4.01494e-02	
     10161.60000	      4.37499e-02	
     10200.70000	      4.17284e-02	
     10240.00000	      4.93685e-02	
     10279.30000	      4.92960e-02	
     10318.80000	      4.90430e-02	
     10358.50000	      5.24817e-02	
     10398.20000	      5.17583e-02	
     10438.00000	      5.45607e-02	
     10478.00000	      5.75926e-02	
     10518.10000	      5.59817e-02	
     10558.30000	      5.29898e-02	
     10598.60000	      5.89630e-02	
     10639.00000	      5.50309e-02	
     10679.50000	      5.89457e-02	
     10720.10000	      6.56042e-02	
     10760.80000	      6.38322e-02	
     10801.70000	      6.60279e-02	
     10842.60000	      6.90435e-02	
     10883.60000	      7.42202e-02	
     10924.70000	      7.12905e-02	
     10965.90000	      7.08666e-02	
     11007.20000	      7.13611e-02	
     11048.50000	      6.72833e-02	
     11090.00000	      6.99628e-02	
     11131.50000	      6.86326e-02	
     11173.10000	      7.21447e-02	
     11214.80000	      7.31379e-02	
     11256.60000	      7.35780e-02	
     11298.40000	      7.41314e-02	
     11340.30000	      7.32188e-02	
     11382.30000	      7.02214e-02	
     11424.30000	      6.57121e-02	
     11466.40000	      7.37392e-02	
     11508.60000	      8.34970e-02	
     11550.80000	      7.87078e-02	
     11593.10000	      7.67352e-02	
     11635.50000	      7.25861e-02	
     11677.90000	      6.74285e-02	
     11720.30000	      6.78719e-02	
     11762.80000	      6.71247e-02	
     11805.40000	      7.02043e-02	
     11848.00000	      7.36474e-02	
     11890.70000	      7.70859e-02	
     11933.40000	      7.74376e-02	
     11976.10000	      7.07881e-02	
     12018.90000	      7.08142e-02	
     12061.70000	      6.95132e-02	
     12104.50000	      7.81996e-02	
     12147.40000	      8.34750e-02	
     12190.30000	      7.95232e-02	
     12233.30000	      8.83135e-02	
     12276.20000	      8.67350e-02	
     12319.20000	      9.02247e-02	
     12362.20000	      8.67956e-02	
     12405.30000	      7.93692e-02	
     12448.40000	      8.02119e-02	
     12491.40000	      7.75471e-02	
     12534.50000	      8.34297e-02	
     12577.70000	      8.88370e-02	
     12620.80000	      9.71157e-02	
     12663.90000	      9.88201e-02	
     12707.10000	      1.01327e-01	
     12750.20000	      1.00821e-01	
     12793.40000	      1.01383e-01	
     12836.60000	      9.77093e-02	
     12879.80000	      1.01242e-01	
     12922.90000	      9.88982e-02	
     12966.10000	      9.86433e-02	
     13009.30000	      9.87263e-02	
     13052.50000	      9.91418e-02	
     13095.70000	      9.77504e-02	
     13138.80000	      1.02685e-01	
     13182.00000	      1.02999e-01	
     13225.10000	      9.89271e-02	
     13268.30000	      8.86440e-02	
     13311.40000	      7.74189e-02	
     13354.50000	      6.44848e-02	
     13397.60000	      5.42962e-02	
     13440.70000	      4.93231e-02	
     13483.80000	      4.71407e-02	
     13526.90000	      4.22248e-02	
     13569.90000	      4.29699e-02	
     13612.90000	      4.15528e-02	
     13655.90000	      4.20283e-02	
     13698.90000	      4.92387e-02	
     13741.80000	      4.99417e-02	
     13784.70000	      4.96300e-02	
     13827.60000	      4.65715e-02	
     13870.50000	      5.26980e-02	
     13913.30000	      4.79190e-02	
     13956.10000	      4.23179e-02	
     13998.90000	      4.06961e-02	
     14041.60000	      4.54579e-02	
     14084.30000	      4.47874e-02	
     14127.00000	      3.84582e-02	
     14169.60000	      4.56544e-02	
     14212.20000	      3.97902e-02	
     14254.80000	      4.04374e-02	
     14297.30000	      4.30830e-02	
     14339.70000	      3.75700e-02	
     14382.20000	      4.01769e-02	
     14424.60000	      4.19194e-02	
     14466.90000	      4.44536e-02	
     14509.20000	      4.28140e-02	
     14551.50000	      4.08763e-02	
     14593.70000	      4.93868e-02	
     14635.90000	      4.82683e-02	
     14678.00000	      4.83023e-02	
     14720.10000	      4.82885e-02	
     14762.10000	      5.12703e-02	
     14804.10000	      4.97338e-02	
     14846.00000	      4.77000e-02	
     14887.90000	      5.29218e-02	
     14929.70000	      5.67746e-02	
     14971.50000	      5.66465e-02	
     15013.20000	      5.75143e-02	
     15054.90000	      5.53964e-02	
     15096.50000	      6.05379e-02	
     15138.00000	      5.72354e-02	
     15179.50000	      6.07879e-02	
     15221.00000	      6.59824e-02	
     15262.40000	      7.06397e-02	
     15303.70000	      6.51901e-02	
     15345.00000	      6.67947e-02	
     15386.20000	      7.21594e-02	
     15427.30000	      7.05544e-02	
     15468.40000	      7.11891e-02	
     15509.50000	      7.51394e-02	
     15550.40000	      7.66831e-02	
     15591.40000	      7.60731e-02	
     15632.20000	      7.59895e-02	
     15673.00000	      7.78030e-02	
     15713.80000	      8.00004e-02	
     15754.40000	      8.21078e-02	
     15795.00000	      7.90980e-02	
     15835.60000	      7.92812e-02	
     15876.10000	      7.69880e-02	
     15916.50000	      7.91331e-02	
     15956.80000	      8.02906e-02	
     15997.10000	      8.10873e-02	
     16037.40000	      8.23995e-02	
     16077.50000	      8.24893e-02	
     16117.60000	      7.75540e-02	
     16157.70000	      7.90123e-02	
     16197.70000	      7.91551e-02	
     16237.60000	      7.79448e-02	
     16277.40000	      7.94756e-02	
     16317.20000	      7.89780e-02	
     16356.90000	      7.90504e-02	
     16396.60000	      8.17866e-02	
     16436.10000	      8.10153e-02	
     16475.70000	      8.66230e-02	
     16515.10000	      8.39507e-02	
     16554.50000	      8.52482e-02	
     16593.80000	      8.79734e-02	
     16633.10000	      8.54156e-02	
     16672.30000	      8.50096e-02	
     16711.40000	      8.59285e-02	
     16750.50000	      8.21621e-02	
     16789.40000	      8.62057e-02	
     16828.40000	      8.48653e-02	
     16867.20000	      8.64349e-02	
     16906.00000	      8.45884e-02	
     16944.80000	      7.36929e-02	
     16983.40000	      8.33564e-02	
     17022.00000	      8.38241e-02	
     17060.60000	      8.46204e-02	
     17099.00000	      8.08537e-02	
     17137.40000	      8.36584e-02	
     17175.80000	      7.93131e-02	
     17214.10000	      7.66261e-02	
     17252.30000	      7.40944e-02	
     17290.40000	      7.12460e-02	
     17328.50000	      6.96062e-02	
     17366.50000	      6.82532e-02	
     17404.50000	      6.69778e-02	
     17442.40000	      6.44884e-02	
     17480.20000	      6.32273e-02	
     17517.90000	      6.33522e-02	
     17555.60000	      5.85863e-02	
     17593.30000	      5.70794e-02	
     17630.90000	      5.70734e-02	
     17668.40000	      5.57346e-02	
     17705.80000	      5.24251e-02	
     17743.20000	      5.00977e-02	
     17780.50000	      5.10859e-02	
     17817.80000	      4.89341e-02	
     17855.00000	      4.72679e-02	
     17892.10000	      4.52873e-02	
     17929.20000	      4.34071e-02	
     17966.20000	      4.50708e-02	
     18003.20000	      4.60305e-02	
     18040.10000	      4.32939e-02	
     18076.90000	      4.71960e-02	
     18113.70000	      3.78325e-02	
     18150.40000	      4.56243e-02	
     18187.00000	      4.08686e-02	
     18223.60000	      4.27279e-02	
     18260.20000	      4.37499e-02	
     18296.60000	      4.48184e-02	
     18333.10000	      4.19774e-02	
     18369.40000	      4.17424e-02	
     18405.70000	      3.91187e-02	
     18442.00000	      3.82673e-02	
     18478.20000	      3.80798e-02	
     18514.30000	      3.69224e-02	
     18550.40000	      4.16714e-02	
     18586.40000	      3.81951e-02	
     18622.40000	      3.47792e-02	
     18658.30000	      3.47733e-02	
     18694.10000	      3.31900e-02	
     18729.90000	      3.32613e-02	
     18765.70000	      3.55599e-02	
     18801.40000	      3.76377e-02	
     18837.00000	      3.78726e-02	
     18872.60000	      4.07721e-02	
     18908.10000	      3.67124e-02	
     18943.60000	      4.04583e-02	
     18979.00000	      4.35531e-02	
     19014.30000	      4.06500e-02	
     19049.70000	      4.25721e-02	
     19084.90000	      4.37211e-02	
     19120.10000	      4.25254e-02	
     19155.30000	      4.29726e-02	
     19190.40000	      4.35215e-02	
     19225.40000	      4.30953e-02	
     19260.40000	      4.51975e-02	
     19295.40000	      4.23957e-02	
     19330.30000	      4.09500e-02	
     19365.20000	      3.75300e-02	
     19400.00000	      3.60239e-02	
     19434.70000	      3.87232e-02	
     19469.40000	      3.76365e-02	
     19504.10000	      3.64761e-02	
     19538.70000	      3.81966e-02	
     19573.20000	      3.76733e-02	
     19607.70000	      3.45896e-02	
     19642.20000	      4.00670e-02	
     19676.60000	      3.60364e-02	
     19710.90000	      3.76940e-02	
     19745.20000	      3.30493e-02	
     19779.50000	      3.69859e-02	
     19813.70000	      3.52821e-02	
     19847.90000	      3.62335e-02	
     19882.00000	      3.72220e-02	
     19916.10000	      3.62814e-02	
     19950.10000	      3.88423e-02	
     19984.10000	      3.71154e-02	
     20018.00000	      4.01786e-02	
     20051.90000	      3.89310e-02	
     20085.70000	      4.08827e-02	
     20119.50000	      3.75249e-02	
     20153.30000	      3.62441e-02	
     20187.00000	      3.99953e-02	
     20220.60000	      3.95802e-02	
     20254.20000	      4.01880e-02	
     20287.80000	      3.91366e-02	
     20321.30000	      4.35713e-02	
     20354.80000	      4.24294e-02	
     20388.20000	      4.35780e-02	
     20421.60000	      4.04936e-02	
     20454.90000	      4.25753e-02	
     20488.20000	      4.25562e-02	
     20521.50000	      4.49052e-02	
     20554.60000	      4.46568e-02	
     20587.80000	      4.21595e-02	
     20620.90000	      4.60704e-02	
     20654.00000	      4.49824e-02	
     20687.00000	      4.65035e-02	
     20720.00000	      4.82222e-02	
     20752.90000	      4.71462e-02	
     20785.80000	      4.57319e-02	
     20818.60000	      4.73361e-02	
     20851.40000	      4.82778e-02	
     20884.10000	      4.91557e-02	
     20916.80000	      4.96979e-02	
     20949.50000	      4.98971e-02	
     20982.10000	      4.97328e-02	
     21014.70000	      5.02637e-02	
     21047.20000	      4.99898e-02	
     21079.70000	      5.07137e-02	
     21112.10000	      5.36789e-02	
     21144.50000	      5.23689e-02	
     21176.80000	      5.18206e-02	
     21209.10000	      5.43146e-02	
     21241.40000	      5.43244e-02	
     21273.60000	      5.19661e-02	
     21305.70000	      5.36051e-02	
     21337.80000	      5.26010e-02	
     21369.90000	      5.25795e-02	
     21401.90000	      5.21689e-02	
     21433.90000	      5.31891e-02	
     21465.80000	      5.29165e-02	
     21497.70000	      5.49028e-02	
     21529.50000	      5.24994e-02	
     21561.30000	      5.48055e-02	
     21593.00000	      5.28157e-02	
     21624.70000	      5.30468e-02	
     21656.30000	      5.25209e-02	
     21687.90000	      5.09346e-02	
     21719.50000	      5.28855e-02	
     21751.00000	      5.26702e-02	
     21782.40000	      5.27792e-02	
     21813.80000	      5.26740e-02	
     21845.20000	      5.29800e-02	
     21876.50000	      5.19101e-02	
     21907.70000	      5.15865e-02	
     21938.90000	      5.19572e-02	
     21970.10000	      5.19070e-02	
     22001.20000	      4.93695e-02	
     22032.30000	      5.34104e-02	
     22063.30000	      5.03927e-02	
     22094.20000	      5.36011e-02	
     22125.20000	      4.77325e-02	
     22156.00000	      4.88451e-02	
     22186.80000	      4.97603e-02	
     22217.60000	      4.85780e-02	
     22248.30000	      5.17843e-02	
     22279.00000	      4.97528e-02	
     22309.60000	      4.71441e-02	
     22340.10000	      5.04519e-02	
     22370.60000	      4.89283e-02	
     22401.10000	      4.99363e-02	
     22431.50000	      4.86321e-02	
     22461.90000	      4.77604e-02	
     22492.20000	      4.95498e-02	
     22522.40000	      4.76404e-02	
     22552.60000	      4.82278e-02	
     22582.80000	      4.75254e-02	
     22612.90000	      4.79245e-02	
     22642.90000	      4.85456e-02	
     22672.90000	      4.52548e-02	
     22702.90000	      4.84340e-02	
     22732.80000	      4.78351e-02	
     22762.60000	      4.65124e-02	
     22792.40000	      4.65464e-02	
     22822.10000	      4.74353e-02	
     22851.80000	      4.37167e-02	
     22881.40000	      4.40705e-02	
     22911.00000	      4.51871e-02	
     22940.50000	      4.13101e-02	
     22970.00000	      3.84833e-02	
     22999.40000	      3.57075e-02	
     23028.80000	      3.74096e-02	
     23058.10000	      3.98810e-02	
     23087.40000	      3.91729e-02	
     23116.60000	      3.71567e-02	
     23145.80000	      3.73747e-02	
     23174.90000	      3.64314e-02	
     23204.00000	      3.79596e-02	
     23233.00000	      3.67511e-02	
     23261.90000	      3.42898e-02	
     23290.90000	      3.31718e-02	
     23319.70000	      3.54355e-02	
     23348.50000	      3.57623e-02	
     23377.30000	      3.45518e-02	
     23406.00000	      3.52691e-02	
     23434.70000	      3.52383e-02	
     23463.30000	      3.62395e-02	
     23491.90000	      3.61711e-02	
     23520.40000	      3.60881e-02	
     23548.90000	      3.49783e-02	
     23577.30000	      3.27139e-02	
     23605.70000	      3.46056e-02	
     23634.00000	      3.43507e-02	
     23662.30000	      3.66475e-02	
     23690.60000	      3.23447e-02	
     23718.80000	      3.47094e-02	
     23747.00000	      3.50350e-02	
     23775.10000	      3.42261e-02	
     23803.20000	      3.41919e-02	
     23831.20000	      3.12524e-02	
     23859.20000	      3.31828e-02	
     23887.20000	      3.37140e-02	
     23915.10000	      3.44696e-02	
     23943.00000	      3.26136e-02	
     23970.90000	      3.33905e-02	
     23998.70000	      3.25189e-02	
     24026.50000	      2.94175e-02	
     24054.20000	      3.46540e-02	
     24082.00000	      3.17676e-02	
     24109.70000	      3.09302e-02	
     24137.30000	      3.53356e-02	
     24165.00000	      2.97096e-02	
     24192.60000	      3.02076e-02	
     24220.20000	      3.11586e-02	
     24247.70000	      2.88809e-02	
     24275.30000	      3.08447e-02	
     24302.80000	      2.92494e-02	
     24330.30000	      2.89554e-02	
     24357.80000	      2.66873e-02	
     24385.30000	      2.41004e-02	
     24412.80000	      2.81408e-02	
     24440.20000	      3.31494e-02	
     24467.70000	      2.88352e-02	
     24495.10000	      2.63256e-02	
     24522.60000	      2.64160e-02	
     24550.00000	      2.32966e-02	
     24577.40000	      2.55160e-02	
     24604.90000	      2.80162e-02	
     24632.30000	      2.56070e-02	
     24659.80000	      2.65836e-02	
     24687.20000	      2.27342e-02	
     24714.70000	      2.37960e-02	
     24742.20000	      2.72401e-02	
     24769.70000	      2.45761e-02	
     24797.20000	      2.28797e-02	
     24824.80000	      2.30411e-02	
     24852.40000	      2.24869e-02	
     24880.00000	      2.38916e-02	
     24907.60000	      1.95474e-02	
     24935.30000	      1.92973e-02	
     24963.00000	      2.30022e-02	
     24990.70000	      2.21600e-02	
     25018.50000	      2.00845e-02	
     25046.40000	      2.73424e-02	
     25074.30000	      2.27523e-02	
     25102.30000	      2.18324e-02	
     25130.30000	      1.81112e-02	
     25158.40000	      2.21514e-02	
     25186.50000	      1.62643e-02	
     25214.80000	      1.10731e-02	
     25243.10000	      1.87928e-02	
     25271.50000	      1.78549e-02	
     25300.00000	      1.80623e-02	
     25328.50000	      1.50054e-02	
     25357.20000	      1.13141e-02	
     25386.00000	      2.19602e-02	
     25414.80000	      1.63014e-02	
     25443.80000	      1.43121e-02	
     25472.90000	      3.91754e-02	
     25502.20000	      2.03768e-02	
     25531.50000	      1.04724e-03	
     25561.00000	      1.97358e-02	
#time:0.015702
