# The SpeX Prism Spectral Libraries
# spty = Opt:M5V  (Spectral type)
#
#     WAVELENGTH	#           FLUX	
#     (ANGSTROM)	#  (ERG/CM2/S/A)	
################	################	
      6491.85000	     1.99495e-02	
      6514.10000	     1.74263e-02	
      6536.23000	     1.62501e-02	
      6558.25000	     1.39226e-02	
      6580.18000	     1.11079e-02	
      6602.02000	     9.65829e-03	
      6623.78000	     8.99862e-03	
      6645.48000	     8.83693e-03	
      6667.11000	     7.45110e-03	
      6688.70000	     9.74566e-03	
      6710.25000	     9.77604e-03	
      6731.76000	     7.65374e-03	
      6753.26000	     7.54037e-03	
      6774.73000	     6.79165e-03	
      6796.20000	     9.15595e-03	
      6817.67000	     6.36308e-03	
      6839.15000	     8.13280e-03	
      6860.64000	     8.63450e-03	
      6882.15000	     1.03966e-02	
      6903.69000	     1.22387e-02	
      6925.27000	     1.47506e-02	
      6946.89000	     1.73917e-02	
      6968.57000	     1.77450e-02	
      6990.29000	     2.00248e-02	
      7012.08000	     2.14113e-02	
      7033.94000	     2.27133e-02	
      7055.87000	     1.98659e-02	
      7077.87000	     1.63322e-02	
      7099.97000	     1.37620e-02	
      7122.15000	     1.06957e-02	
      7144.43000	     1.04649e-02	
      7166.80000	     1.20365e-02	
      7189.29000	     1.32025e-02	
      7211.88000	     1.48565e-02	
      7234.59000	     1.88057e-02	
      7257.41000	     2.16048e-02	
      7280.36000	     2.60331e-02	
      7303.43000	     3.03209e-02	
      7326.64000	     3.47244e-02	
      7349.97000	     3.93342e-02	
      7373.45000	     4.14977e-02	
      7397.07000	     4.31708e-02	
      7420.84000	     4.48438e-02	
      7444.75000	     4.51587e-02	
      7468.81000	     4.65739e-02	
      7493.03000	     4.75747e-02	
      7517.41000	     4.99229e-02	
      7541.95000	     5.13000e-02	
      7566.65000	     5.09092e-02	
      7591.52000	     4.73187e-02	
      7616.56000	     3.84983e-02	
      7641.76000	     2.91334e-02	
      7667.14000	     2.45917e-02	
      7692.69000	     2.40561e-02	
      7718.43000	     2.58025e-02	
      7744.34000	     2.93243e-02	
      7770.43000	     3.14325e-02	
      7796.70000	     3.32358e-02	
      7823.16000	     3.47527e-02	
      7849.80000	     3.67336e-02	
      7876.63000	     3.87643e-02	
      7903.64000	     4.04522e-02	
      7930.85000	     4.28291e-02	
      7958.25000	     4.50411e-02	
      7985.84000	     4.88265e-02	
      8013.62000	     5.29151e-02	
      8041.59000	     5.76518e-02	
      8069.76000	     6.28891e-02	
      8098.12000	     6.75824e-02	
      8126.68000	     6.83644e-02	
      8155.43000	     6.76468e-02	
      8184.38000	     6.71199e-02	
      8213.53000	     6.78261e-02	
      8242.87000	     6.88493e-02	
      8272.41000	     6.97296e-02	
      8302.15000	     6.77794e-02	
      8332.08000	     6.67870e-02	
      8362.22000	     6.59311e-02	
      8392.54000	     6.36875e-02	
      8423.07000	     5.87534e-02	
      8453.79000	     5.45983e-02	
      8484.71000	     5.09260e-02	
      8515.82000	     5.24961e-02	
      8547.13000	     5.49839e-02	
      8578.64000	     5.78630e-02	
      8610.34000	     6.01701e-02	
      8642.23000	     6.12973e-02	
      8674.32000	     6.20027e-02	
      8706.60000	     6.37452e-02	
      8739.07000	     6.68167e-02	
      8771.73000	     7.13681e-02	
      8804.59000	     7.36002e-02	
      8837.63000	     7.27565e-02	
      8870.86000	     7.22615e-02	
      8904.28000	     7.14730e-02	
      8937.88000	     7.43372e-02	
      8971.67000	     7.72606e-02	
      9005.65000	     7.79840e-02	
      9039.80000	     8.12484e-02	
      9074.14000	     8.37285e-02	
      9108.66000	     8.69389e-02	
      9143.36000	     8.99253e-02	
      9178.23000	     9.16719e-02	
      9213.29000	     9.06950e-02	
      9248.51000	     8.92208e-02	
      9283.91000	     8.73765e-02	
      9319.49000	     8.64938e-02	
      9355.23000	     8.53608e-02	
      9391.14000	     8.72477e-02	
      9427.22000	     8.91497e-02	
      9463.46000	     9.14810e-02	
      9499.87000	     9.42523e-02	
      9536.44000	     9.40833e-02	
      9573.18000	     9.39549e-02	
      9610.07000	     9.32536e-02	
      9647.11000	     9.32853e-02	
      9684.32000	     9.33596e-02	
      9721.67000	     9.36034e-02	
      9759.18000	     9.41702e-02	
      9796.84000	     9.45525e-02	
      9834.65000	     9.43087e-02	
      9872.60000	     9.09652e-02	
      9910.70000	     8.77248e-02	
      9948.94000	     8.54241e-02	
      9987.32000	     8.79052e-02	
     10025.80000	     8.94039e-02	
     10064.50000	     9.11299e-02	
     10103.30000	     9.24822e-02	
     10142.20000	     9.29553e-02	
     10181.30000	     9.18386e-02	
     10220.40000	     9.16278e-02	
     10259.80000	     9.14968e-02	
     10299.20000	     9.14150e-02	
     10338.70000	     9.21229e-02	
     10378.40000	     9.37417e-02	
     10418.20000	     9.53647e-02	
     10458.10000	     9.62635e-02	
     10498.20000	     9.61025e-02	
     10538.30000	     9.57141e-02	
     10578.50000	     9.53820e-02	
     10618.90000	     9.60298e-02	
     10659.40000	     9.72774e-02	
     10699.90000	     9.78335e-02	
     10740.60000	     9.86751e-02	
     10781.40000	     9.95698e-02	
     10822.20000	     1.00614e-01	
     10863.20000	     1.02173e-01	
     10904.20000	     1.01661e-01	
     10945.40000	     1.00282e-01	
     10986.60000	     1.01034e-01	
     11027.90000	     1.00037e-01	
     11069.40000	     9.84517e-02	
     11110.80000	     9.86179e-02	
     11152.40000	     9.88843e-02	
     11194.10000	     9.84046e-02	
     11235.80000	     9.81526e-02	
     11277.60000	     9.78709e-02	
     11319.50000	     9.43188e-02	
     11361.40000	     9.07867e-02	
     11403.40000	     8.92923e-02	
     11445.50000	     9.16522e-02	
     11487.60000	     9.60923e-02	
     11529.80000	     9.77573e-02	
     11572.10000	     9.71018e-02	
     11614.40000	     9.63797e-02	
     11656.80000	     9.47089e-02	
     11699.20000	     9.34653e-02	
     11741.70000	     9.21454e-02	
     11784.20000	     9.21407e-02	
     11826.80000	     9.21908e-02	
     11869.50000	     9.30481e-02	
     11912.10000	     9.17837e-02	
     11954.80000	     9.04882e-02	
     11997.60000	     8.94114e-02	
     12040.40000	     8.96650e-02	
     12083.20000	     9.09351e-02	
     12126.10000	     9.14723e-02	
     12169.00000	     9.20144e-02	
     12211.90000	     9.31137e-02	
     12254.90000	     9.28668e-02	
     12297.90000	     9.24042e-02	
     12340.90000	     9.08799e-02	
     12383.90000	     8.88962e-02	
     12426.90000	     8.73150e-02	
     12470.00000	     8.68060e-02	
     12513.10000	     8.80582e-02	
     12556.20000	     8.87755e-02	
     12599.40000	     9.02107e-02	
     12642.50000	     9.10513e-02	
     12685.60000	     9.10102e-02	
     12728.80000	     9.24769e-02	
     12772.00000	     9.24127e-02	
     12815.10000	     9.05257e-02	
     12858.30000	     9.02594e-02	
     12901.50000	     9.03542e-02	
     12944.70000	     8.94712e-02	
     12987.80000	     8.94372e-02	
     13031.00000	     8.96232e-02	
     13074.20000	     8.86222e-02	
     13117.40000	     8.81828e-02	
     13160.50000	     8.79094e-02	
     13203.70000	     8.81723e-02	
     13246.80000	     8.71079e-02	
     13290.00000	     8.43913e-02	
     13333.10000	     8.02474e-02	
     13376.20000	     7.71761e-02	
     13419.30000	     7.66890e-02	
     13462.40000	     7.75365e-02	
     13505.50000	     7.78025e-02	
     13548.50000	     7.68159e-02	
     13591.50000	     7.44216e-02	
     13634.50000	     7.35530e-02	
     13677.50000	     7.38031e-02	
     13720.50000	     7.24705e-02	
     13763.40000	     7.43669e-02	
     13806.30000	     7.47224e-02	
     13849.20000	     7.16766e-02	
     13892.00000	     7.15144e-02	
     13934.80000	     7.15490e-02	
     13977.60000	     6.78417e-02	
     14020.40000	     6.81058e-02	
     14063.10000	     6.68964e-02	
     14105.80000	     6.61690e-02	
     14148.40000	     6.56665e-02	
     14191.00000	     6.48980e-02	
     14233.60000	     6.52312e-02	
     14276.10000	     6.53252e-02	
     14318.60000	     6.46489e-02	
     14361.10000	     6.43526e-02	
     14403.50000	     6.45767e-02	
     14445.90000	     6.46597e-02	
     14488.20000	     6.44940e-02	
     14530.50000	     6.46456e-02	
     14572.70000	     6.46639e-02	
     14614.90000	     6.41437e-02	
     14657.10000	     6.34484e-02	
     14699.20000	     6.23005e-02	
     14741.20000	     6.19790e-02	
     14783.20000	     6.21213e-02	
     14825.20000	     6.19872e-02	
     14867.10000	     6.20093e-02	
     14908.90000	     6.26312e-02	
     14950.70000	     6.29826e-02	
     14992.50000	     6.28072e-02	
     15034.20000	     6.23957e-02	
     15075.80000	     6.24724e-02	
     15117.40000	     6.26079e-02	
     15158.90000	     6.24512e-02	
     15200.40000	     6.22173e-02	
     15241.80000	     6.29658e-02	
     15283.20000	     6.32506e-02	
     15324.50000	     6.32706e-02	
     15365.70000	     6.29122e-02	
     15406.90000	     6.29707e-02	
     15448.00000	     6.26912e-02	
     15489.10000	     6.29779e-02	
     15530.10000	     6.28724e-02	
     15571.00000	     6.27783e-02	
     15611.90000	     6.29460e-02	
     15652.70000	     6.32107e-02	
     15693.50000	     6.27211e-02	
     15734.20000	     6.28289e-02	
     15774.90000	     6.30362e-02	
     15815.40000	     6.30724e-02	
     15856.00000	     6.19643e-02	
     15896.40000	     6.19654e-02	
     15936.80000	     6.25585e-02	
     15977.10000	     6.31243e-02	
     16017.40000	     6.28455e-02	
     16057.60000	     6.23494e-02	
     16097.70000	     6.12928e-02	
     16137.80000	     6.10727e-02	
     16177.80000	     6.16419e-02	
     16217.70000	     6.17446e-02	
     16257.60000	     6.12621e-02	
     16297.40000	     6.17486e-02	
     16337.20000	     6.17833e-02	
     16376.90000	     6.17354e-02	
     16416.50000	     6.16716e-02	
     16456.00000	     6.24102e-02	
     16495.50000	     6.28725e-02	
     16534.90000	     6.25434e-02	
     16574.30000	     6.21515e-02	
     16613.60000	     6.20361e-02	
     16652.80000	     6.15441e-02	
     16692.00000	     6.13212e-02	
     16731.00000	     6.13571e-02	
     16770.10000	     6.10237e-02	
     16809.00000	     6.11983e-02	
     16847.90000	     6.13913e-02	
     16886.80000	     6.11576e-02	
     16925.50000	     6.04629e-02	
     16964.20000	     5.99585e-02	
     17002.90000	     5.96613e-02	
     17041.40000	     5.92226e-02	
     17079.90000	     5.84011e-02	
     17118.40000	     5.74452e-02	
     17156.70000	     5.67458e-02	
     17195.00000	     5.62152e-02	
     17233.30000	     5.56574e-02	
     17271.50000	     5.52916e-02	
     17309.60000	     5.50114e-02	
     17347.60000	     5.42899e-02	
     17385.60000	     5.35797e-02	
     17423.50000	     5.31740e-02	
     17461.40000	     5.25895e-02	
     17499.20000	     5.16100e-02	
     17536.90000	     5.08129e-02	
     17574.60000	     4.98566e-02	
     17612.20000	     4.94150e-02	
     17649.70000	     4.85720e-02	
     17687.20000	     4.79749e-02	
     17724.60000	     4.76275e-02	
     17762.00000	     4.71266e-02	
     17799.30000	     4.62457e-02	
     17836.50000	     4.57776e-02	
     17873.70000	     4.48279e-02	
     17910.80000	     4.47825e-02	
     17947.80000	     4.43786e-02	
     17984.80000	     4.44812e-02	
     18021.70000	     4.33678e-02	
     18058.60000	     4.29753e-02	
     18095.40000	     4.34561e-02	
     18132.10000	     4.34231e-02	
     18168.80000	     4.26027e-02	
     18205.40000	     4.26884e-02	
     18242.00000	     4.32800e-02	
     18278.50000	     4.57960e-02	
     18315.00000	     4.37980e-02	
     18351.40000	     4.33247e-02	
     18387.70000	     3.99636e-02	
     18424.00000	     3.93853e-02	
     18460.20000	     4.17188e-02	
     18496.40000	     3.99721e-02	
     18532.50000	     3.97923e-02	
     18568.50000	     3.90436e-02	
     18604.50000	     3.84018e-02	
     18640.40000	     4.03613e-02	
     18676.30000	     4.25394e-02	
     18712.10000	     3.57471e-02	
     18747.90000	     3.49060e-02	
     18783.60000	     3.63239e-02	
     18819.30000	     3.88142e-02	
     18854.90000	     3.83009e-02	
     18890.40000	     3.88683e-02	
     18925.90000	     3.78511e-02	
     18961.40000	     3.95752e-02	
     18996.80000	     4.05622e-02	
     19032.10000	     3.80017e-02	
     19067.40000	     3.91656e-02	
     19102.60000	     4.00259e-02	
     19137.80000	     3.74392e-02	
     19173.00000	     3.74867e-02	
     19208.00000	     3.78073e-02	
     19243.10000	     3.72023e-02	
     19278.00000	     3.62840e-02	
     19313.00000	     3.48200e-02	
     19347.80000	     3.58066e-02	
     19382.70000	     3.56259e-02	
     19417.40000	     3.37233e-02	
     19452.20000	     3.28387e-02	
     19486.80000	     3.22164e-02	
     19521.50000	     3.33050e-02	
     19556.00000	     3.37938e-02	
     19590.60000	     3.42078e-02	
     19625.00000	     3.47990e-02	
     19659.50000	     3.44624e-02	
     19693.90000	     3.38211e-02	
     19728.20000	     3.22000e-02	
     19762.50000	     3.09297e-02	
     19796.70000	     3.04253e-02	
     19830.90000	     3.07302e-02	
     19865.10000	     3.13173e-02	
     19899.10000	     3.15197e-02	
     19933.20000	     3.24105e-02	
     19967.20000	     3.32342e-02	
     20001.20000	     3.31270e-02	
     20035.10000	     3.19830e-02	
     20068.90000	     3.15174e-02	
     20102.70000	     3.23057e-02	
     20136.50000	     3.17525e-02	
     20170.20000	     3.14639e-02	
     20203.90000	     3.12766e-02	
     20237.50000	     3.14173e-02	
     20271.10000	     3.16758e-02	
     20304.70000	     3.16032e-02	
     20338.20000	     3.18260e-02	
     20371.60000	     3.16515e-02	
     20405.00000	     3.15976e-02	
     20438.40000	     3.13746e-02	
     20471.70000	     3.16218e-02	
     20504.90000	     3.17538e-02	
     20538.20000	     3.12272e-02	
     20571.30000	     3.11872e-02	
     20604.50000	     3.12987e-02	
     20637.50000	     3.12952e-02	
     20670.60000	     3.10139e-02	
     20703.60000	     3.10111e-02	
     20736.50000	     3.10522e-02	
     20769.40000	     3.09101e-02	
     20802.30000	     3.10828e-02	
     20835.10000	     3.11464e-02	
     20867.90000	     3.10886e-02	
     20900.60000	     3.11872e-02	
     20933.30000	     3.10094e-02	
     20965.90000	     3.09859e-02	
     20998.50000	     3.11553e-02	
     21031.00000	     3.10588e-02	
     21063.50000	     3.10066e-02	
     21096.00000	     3.11444e-02	
     21128.40000	     3.11466e-02	
     21160.80000	     3.12452e-02	
     21193.10000	     3.10000e-02	
     21225.30000	     3.09715e-02	
     21257.60000	     3.10722e-02	
     21289.70000	     3.09981e-02	
     21321.90000	     3.09460e-02	
     21354.00000	     3.11250e-02	
     21386.00000	     3.08964e-02	
     21418.00000	     3.12191e-02	
     21449.90000	     3.10657e-02	
     21481.80000	     3.11549e-02	
     21513.70000	     3.09758e-02	
     21545.50000	     3.08397e-02	
     21577.20000	     3.08378e-02	
     21609.00000	     3.08537e-02	
     21640.60000	     3.08650e-02	
     21672.20000	     3.11478e-02	
     21703.80000	     3.10295e-02	
     21735.30000	     3.09013e-02	
     21766.80000	     3.06612e-02	
     21798.20000	     3.07035e-02	
     21829.60000	     3.07305e-02	
     21860.90000	     3.06508e-02	
     21892.20000	     3.05269e-02	
     21923.40000	     3.04425e-02	
     21954.60000	     3.07013e-02	
     21985.80000	     3.05355e-02	
     22016.80000	     2.99570e-02	
     22047.90000	     2.89726e-02	
     22078.90000	     2.85039e-02	
     22109.80000	     2.87453e-02	
     22140.70000	     2.97672e-02	
     22171.50000	     3.03310e-02	
     22202.30000	     3.01213e-02	
     22233.00000	     3.02516e-02	
     22263.70000	     3.00667e-02	
     22294.40000	     3.01338e-02	
     22325.00000	     3.01066e-02	
     22355.50000	     3.01948e-02	
     22386.00000	     3.01607e-02	
     22416.40000	     3.00971e-02	
     22446.80000	     3.01386e-02	
     22477.10000	     2.99529e-02	
     22507.40000	     2.99548e-02	
     22537.60000	     2.97861e-02	
     22567.80000	     2.96547e-02	
     22597.90000	     2.95252e-02	
     22628.00000	     2.90109e-02	
     22658.00000	     2.91453e-02	
     22688.00000	     2.91770e-02	
     22717.90000	     2.90181e-02	
     22747.80000	     2.91797e-02	
     22777.60000	     2.91562e-02	
     22807.30000	     2.90492e-02	
     22837.10000	     2.88510e-02	
     22866.70000	     2.89426e-02	
     22896.30000	     2.86803e-02	
     22925.90000	     2.75179e-02	
     22955.40000	     2.60248e-02	
     22984.80000	     2.55222e-02	
     23014.20000	     2.61851e-02	
     23043.60000	     2.64970e-02	
     23072.90000	     2.63447e-02	
     23102.10000	     2.64411e-02	
     23131.30000	     2.63342e-02	
     23160.40000	     2.64336e-02	
     23189.50000	     2.56609e-02	
     23218.60000	     2.46865e-02	
     23247.60000	     2.41137e-02	
     23276.50000	     2.37796e-02	
     23305.40000	     2.42363e-02	
     23334.20000	     2.41540e-02	
     23363.00000	     2.40395e-02	
     23391.80000	     2.37314e-02	
     23420.40000	     2.39336e-02	
     23449.10000	     2.44511e-02	
     23477.70000	     2.45828e-02	
     23506.20000	     2.36286e-02	
     23534.70000	     2.27773e-02	
     23563.20000	     2.23084e-02	
     23591.60000	     2.28053e-02	
     23620.00000	     2.31038e-02	
     23648.30000	     2.32467e-02	
     23676.60000	     2.35299e-02	
     23704.80000	     2.36006e-02	
     23733.00000	     2.31691e-02	
     23761.10000	     2.32192e-02	
     23789.20000	     2.29541e-02	
     23817.30000	     2.21191e-02	
     23845.30000	     2.14139e-02	
     23873.30000	     2.13264e-02	
     23901.20000	     2.14500e-02	
     23929.20000	     2.17421e-02	
     23957.00000	     2.16647e-02	
     23984.90000	     2.15854e-02	
     24012.70000	     2.11361e-02	
     24040.40000	     2.11172e-02	
     24068.20000	     2.06260e-02	
     24095.90000	     2.03296e-02	
     24123.60000	     2.04190e-02	
     24151.20000	     2.02721e-02	
     24178.90000	     1.98706e-02	
     24206.50000	     1.97723e-02	
     24234.00000	     1.99268e-02	
     24261.60000	     1.94264e-02	
     24289.10000	     1.94356e-02	
     24316.70000	     1.96685e-02	
     24344.20000	     1.93433e-02	
     24371.70000	     1.85606e-02	
     24399.10000	     1.89426e-02	
     24426.60000	     1.89964e-02	
     24454.00000	     1.87434e-02	
     24481.50000	     1.83039e-02	
     24508.90000	     1.81880e-02	
     24536.40000	     1.78011e-02	
     24563.80000	     1.75353e-02	
     24591.20000	     1.78266e-02	
     24618.70000	     1.72483e-02	
     24646.10000	     1.70767e-02	
     24673.60000	     1.73441e-02	
     24701.10000	     1.72779e-02	
     24728.50000	     1.65167e-02	
     24756.00000	     1.63459e-02	
     24783.50000	     1.66592e-02	
     24811.10000	     1.65674e-02	
     24838.60000	     1.62986e-02	
     24866.20000	     1.65144e-02	
     24893.90000	     1.57738e-02	
     24921.50000	     1.59238e-02	
     24949.20000	     1.58497e-02	
     24976.90000	     1.55105e-02	
     25004.70000	     1.62181e-02	
     25032.50000	     1.61715e-02	
     25060.40000	     1.54896e-02	
     25088.40000	     1.59081e-02	
     25116.40000	     1.64523e-02	
     25144.40000	     1.56269e-02	
     25172.50000	     1.49252e-02	
     25200.70000	     1.43756e-02	
     25229.00000	     1.58020e-02	
     25257.40000	     1.53168e-02	
     25285.80000	     1.43897e-02	
     25314.30000	     1.54070e-02	
     25342.90000	     1.48815e-02	
     25371.70000	     1.55039e-02	
     25400.50000	     1.39821e-02	
     25429.40000	     1.41284e-02	
     25458.50000	     1.51109e-02	
     25487.60000	     1.27468e-02	
     25516.90000	     1.42121e-02	
     25546.30000	     1.63323e-02	
     25575.90000	     1.38007e-02	
#time:0.015656
