# The SpeX Prism Spectral Libraries
# spty = Opt:M9V  (Spectral type)
#
#     WAVELENGTH	#            FLUX	
#     (ANGSTROM)	#   (ERG/CM2/S/A)	
################	#################	
      6555.29000	      1.06661e-02	
      6577.23000	      1.10714e-03	
      6599.08000	      6.69461e-03	
      6620.86000	      3.16560e-04	
      6642.56000	     -7.52210e-04	
      6664.20000	      2.68655e-03	
      6685.80000	      2.46740e-03	
      6707.35000	      3.76002e-03	
      6728.87000	      3.22993e-03	
      6750.37000	      5.02495e-03	
      6771.84000	      5.28065e-03	
      6793.31000	      4.17161e-03	
      6814.78000	      4.47345e-03	
      6836.26000	      5.25703e-03	
      6857.74000	      2.77729e-03	
      6879.26000	      5.21220e-03	
      6900.79000	      2.61872e-03	
      6922.37000	      5.33997e-03	
      6943.98000	      4.61873e-03	
      6965.65000	      7.06175e-03	
      6987.37000	      6.32509e-03	
      7009.15000	      5.02557e-03	
      7030.99000	      5.58524e-03	
      7052.91000	      5.92309e-03	
      7074.91000	      5.26857e-03	
      7096.99000	      5.83945e-03	
      7119.16000	      4.97682e-03	
      7141.43000	      5.72279e-03	
      7163.79000	      5.70779e-03	
      7186.26000	      5.93269e-03	
      7208.83000	      5.91988e-03	
      7231.52000	      7.05482e-03	
      7254.33000	      7.85661e-03	
      7277.26000	      7.18961e-03	
      7300.32000	      9.37265e-03	
      7323.51000	      1.19766e-02	
      7346.83000	      1.23612e-02	
      7370.29000	      1.23266e-02	
      7393.89000	      1.20937e-02	
      7417.63000	      1.23077e-02	
      7441.52000	      1.10630e-02	
      7465.57000	      1.12223e-02	
      7489.77000	      1.22340e-02	
      7514.12000	      1.22789e-02	
      7538.64000	      1.33960e-02	
      7563.32000	      1.43808e-02	
      7588.16000	      1.23530e-02	
      7613.18000	      1.24208e-02	
      7638.36000	      8.08913e-03	
      7663.72000	      7.76640e-03	
      7689.25000	      6.99427e-03	
      7714.95000	      8.19801e-03	
      7740.84000	      9.73928e-03	
      7766.91000	      9.97405e-03	
      7793.15000	      1.13146e-02	
      7819.59000	      1.17476e-02	
      7846.20000	      1.22245e-02	
      7873.01000	      1.17884e-02	
      7900.00000	      1.23204e-02	
      7927.18000	      1.24422e-02	
      7954.55000	      1.29559e-02	
      7982.11000	      1.30383e-02	
      8009.87000	      1.48595e-02	
      8037.82000	      1.81238e-02	
      8065.96000	      2.10478e-02	
      8094.30000	      2.50919e-02	
      8122.83000	      2.87167e-02	
      8151.55000	      3.03842e-02	
      8180.48000	      3.13627e-02	
      8209.60000	      3.24255e-02	
      8238.91000	      3.18022e-02	
      8268.43000	      3.19754e-02	
      8298.14000	      3.12799e-02	
      8328.05000	      3.02351e-02	
      8358.15000	      2.93066e-02	
      8388.45000	      2.97943e-02	
      8418.95000	      2.65624e-02	
      8449.65000	      2.33196e-02	
      8480.54000	      2.10074e-02	
      8511.63000	      2.02302e-02	
      8542.91000	      2.16548e-02	
      8574.39000	      2.24581e-02	
      8606.06000	      2.38274e-02	
      8637.93000	      2.47332e-02	
      8669.99000	      2.42537e-02	
      8702.25000	      2.59771e-02	
      8734.69000	      2.78613e-02	
      8767.33000	      3.04330e-02	
      8800.16000	      3.39598e-02	
      8833.17000	      3.49449e-02	
      8866.38000	      3.54394e-02	
      8899.77000	      3.57154e-02	
      8933.35000	      3.71320e-02	
      8967.12000	      4.11810e-02	
      9001.07000	      4.29069e-02	
      9035.20000	      4.54426e-02	
      9069.51000	      4.70537e-02	
      9104.01000	      5.08116e-02	
      9138.68000	      5.64218e-02	
      9173.53000	      5.76337e-02	
      9208.56000	      5.75445e-02	
      9243.76000	      5.63736e-02	
      9279.14000	      5.47446e-02	
      9314.69000	      5.48732e-02	
      9350.41000	      5.54437e-02	
      9386.30000	      5.63692e-02	
      9422.36000	      5.89048e-02	
      9458.58000	      6.27522e-02	
      9494.97000	      6.59271e-02	
      9531.51000	      6.52581e-02	
      9568.22000	      6.56582e-02	
      9605.09000	      6.54720e-02	
      9642.12000	      6.66094e-02	
      9679.30000	      6.82137e-02	
      9716.64000	      6.97780e-02	
      9754.13000	      7.18101e-02	
      9791.77000	      7.27307e-02	
      9829.56000	      7.34247e-02	
      9867.49000	      6.88769e-02	
      9905.57000	      6.44886e-02	
      9943.79000	      6.13230e-02	
      9982.15000	      6.09689e-02	
     10020.70000	      6.25228e-02	
     10059.30000	      6.53599e-02	
     10098.10000	      6.85030e-02	
     10137.00000	      7.13818e-02	
     10176.00000	      7.25527e-02	
     10215.20000	      7.18770e-02	
     10254.50000	      7.17085e-02	
     10293.90000	      7.20078e-02	
     10333.40000	      7.47079e-02	
     10373.10000	      7.77928e-02	
     10412.90000	      8.06812e-02	
     10452.80000	      8.06358e-02	
     10492.80000	      7.88444e-02	
     10532.90000	      7.54218e-02	
     10573.10000	      7.38353e-02	
     10613.50000	      7.48240e-02	
     10653.90000	      7.80262e-02	
     10694.50000	      8.16051e-02	
     10735.10000	      8.45415e-02	
     10775.90000	      8.78814e-02	
     10816.70000	      9.10571e-02	
     10857.70000	      9.58453e-02	
     10898.70000	      9.75659e-02	
     10939.90000	      9.78788e-02	
     10981.10000	      9.67331e-02	
     11022.40000	      9.69229e-02	
     11063.80000	      9.52043e-02	
     11105.30000	      9.43667e-02	
     11146.80000	      9.52354e-02	
     11188.50000	      9.61670e-02	
     11230.20000	      9.63837e-02	
     11272.00000	      9.67342e-02	
     11313.80000	      9.18681e-02	
     11355.80000	      8.73661e-02	
     11397.80000	      8.68260e-02	
     11439.80000	      8.97179e-02	
     11482.00000	      9.59391e-02	
     11524.20000	      9.97636e-02	
     11566.40000	      1.00024e-01	
     11608.70000	      9.90689e-02	
     11651.10000	      9.51682e-02	
     11693.50000	      9.24817e-02	
     11736.00000	      8.86991e-02	
     11778.50000	      8.92723e-02	
     11821.10000	      8.90014e-02	
     11863.70000	      8.99421e-02	
     11906.40000	      8.97541e-02	
     11949.10000	      8.54568e-02	
     11991.80000	      8.43381e-02	
     12034.60000	      8.41833e-02	
     12077.50000	      8.70774e-02	
     12120.30000	      9.02779e-02	
     12163.20000	      9.23859e-02	
     12206.10000	      9.62734e-02	
     12249.10000	      9.69145e-02	
     12292.10000	      9.75491e-02	
     12335.10000	      9.53653e-02	
     12378.10000	      9.07982e-02	
     12421.20000	      8.80485e-02	
     12464.20000	      8.58688e-02	
     12507.30000	      8.79767e-02	
     12550.40000	      9.11864e-02	
     12593.50000	      9.44595e-02	
     12636.70000	      9.75342e-02	
     12679.80000	      9.93282e-02	
     12723.00000	      1.01030e-01	
     12766.20000	      1.01209e-01	
     12809.30000	      9.96684e-02	
     12852.50000	      9.87892e-02	
     12895.70000	      9.96942e-02	
     12938.90000	      9.96422e-02	
     12982.00000	      9.98583e-02	
     13025.20000	      9.98300e-02	
     13068.40000	      9.97979e-02	
     13111.60000	      9.99620e-02	
     13154.70000	      1.00519e-01	
     13197.90000	      9.98041e-02	
     13241.00000	      9.95764e-02	
     13284.20000	      9.44572e-02	
     13327.30000	      8.69920e-02	
     13370.40000	      7.94078e-02	
     13413.50000	      7.41463e-02	
     13456.60000	      7.28800e-02	
     13499.70000	      7.19422e-02	
     13542.70000	      7.23975e-02	
     13585.70000	      7.24142e-02	
     13628.70000	      7.22762e-02	
     13671.70000	      6.96414e-02	
     13714.70000	      6.75120e-02	
     13757.60000	      6.75437e-02	
     13800.50000	      6.69065e-02	
     13843.40000	      6.96786e-02	
     13886.30000	      6.89599e-02	
     13929.10000	      6.59595e-02	
     13971.90000	      6.54632e-02	
     14014.60000	      6.42318e-02	
     14057.30000	      6.18411e-02	
     14100.00000	      6.18107e-02	
     14142.70000	      5.99800e-02	
     14185.30000	      5.94353e-02	
     14227.90000	      5.96614e-02	
     14270.40000	      5.92076e-02	
     14312.90000	      5.96290e-02	
     14355.40000	      5.99279e-02	
     14397.80000	      5.99704e-02	
     14440.20000	      6.03275e-02	
     14482.50000	      6.10237e-02	
     14524.80000	      6.13487e-02	
     14567.10000	      6.14253e-02	
     14609.30000	      6.14331e-02	
     14651.40000	      6.09145e-02	
     14693.50000	      6.05463e-02	
     14735.60000	      6.02322e-02	
     14777.60000	      5.98946e-02	
     14819.50000	      5.99047e-02	
     14861.40000	      6.02956e-02	
     14903.30000	      6.08584e-02	
     14945.10000	      6.18464e-02	
     14986.90000	      6.22108e-02	
     15028.60000	      6.30250e-02	
     15070.20000	      6.37366e-02	
     15111.80000	      6.34911e-02	
     15153.30000	      6.34674e-02	
     15194.80000	      6.44668e-02	
     15236.20000	      6.49734e-02	
     15277.60000	      6.62637e-02	
     15318.90000	      6.68135e-02	
     15360.20000	      6.69776e-02	
     15401.30000	      6.74646e-02	
     15442.50000	      6.76756e-02	
     15483.60000	      6.84388e-02	
     15524.60000	      6.87288e-02	
     15565.50000	      6.90209e-02	
     15606.40000	      6.95725e-02	
     15647.30000	      6.95335e-02	
     15688.00000	      6.98445e-02	
     15728.70000	      7.03258e-02	
     15769.40000	      7.03887e-02	
     15810.00000	      7.04654e-02	
     15850.50000	      6.92462e-02	
     15891.00000	      6.83595e-02	
     15931.40000	      6.91072e-02	
     15971.70000	      7.03751e-02	
     16012.00000	      7.08054e-02	
     16052.20000	      7.08476e-02	
     16092.30000	      6.92801e-02	
     16132.40000	      6.86484e-02	
     16172.40000	      6.90943e-02	
     16212.40000	      6.97458e-02	
     16252.30000	      6.88113e-02	
     16292.10000	      6.92590e-02	
     16331.80000	      6.94798e-02	
     16371.50000	      6.97623e-02	
     16411.20000	      7.03572e-02	
     16450.70000	      7.09646e-02	
     16490.20000	      7.25640e-02	
     16529.60000	      7.23773e-02	
     16569.00000	      7.17755e-02	
     16608.30000	      7.19604e-02	
     16647.50000	      7.18561e-02	
     16686.70000	      7.15745e-02	
     16725.80000	      7.16839e-02	
     16764.80000	      7.23557e-02	
     16803.80000	      7.28936e-02	
     16842.70000	      7.23949e-02	
     16881.50000	      7.25603e-02	
     16920.30000	      7.12911e-02	
     16959.00000	      7.09112e-02	
     16997.70000	      7.01008e-02	
     17036.20000	      7.04958e-02	
     17074.80000	      6.99475e-02	
     17113.20000	      6.85676e-02	
     17151.60000	      6.74090e-02	
     17189.90000	      6.69159e-02	
     17228.10000	      6.54935e-02	
     17266.30000	      6.49572e-02	
     17304.50000	      6.40161e-02	
     17342.50000	      6.29317e-02	
     17380.50000	      6.17495e-02	
     17418.40000	      6.16733e-02	
     17456.30000	      6.04656e-02	
     17494.10000	      5.95456e-02	
     17531.80000	      5.79721e-02	
     17569.50000	      5.70526e-02	
     17607.10000	      5.64099e-02	
     17644.70000	      5.53631e-02	
     17682.20000	      5.43857e-02	
     17719.60000	      5.30584e-02	
     17757.00000	      5.25172e-02	
     17794.30000	      5.11569e-02	
     17831.50000	      5.06802e-02	
     17868.70000	      5.04858e-02	
     17905.80000	      4.86969e-02	
     17942.80000	      4.90735e-02	
     17979.80000	      4.87540e-02	
     18016.80000	      4.80861e-02	
     18053.60000	      4.75670e-02	
     18090.40000	      4.68313e-02	
     18127.20000	      4.71964e-02	
     18163.90000	      4.73613e-02	
     18200.50000	      4.72529e-02	
     18237.10000	      4.77757e-02	
     18273.60000	      4.80983e-02	
     18310.10000	      4.95335e-02	
     18346.50000	      4.90402e-02	
     18382.80000	      4.62040e-02	
     18419.10000	      4.70293e-02	
     18455.30000	      4.25999e-02	
     18491.50000	      4.44513e-02	
     18527.60000	      4.57755e-02	
     18563.70000	      4.21212e-02	
     18599.70000	      4.17553e-02	
     18635.60000	      4.14926e-02	
     18671.50000	      4.10972e-02	
     18707.30000	      4.36117e-02	
     18743.10000	      4.00607e-02	
     18778.80000	      3.91646e-02	
     18814.50000	      4.00103e-02	
     18850.10000	      4.25291e-02	
     18885.70000	      4.27799e-02	
     18921.20000	      4.31920e-02	
     18956.60000	      4.56531e-02	
     18992.00000	      4.42949e-02	
     19027.40000	      4.57685e-02	
     19062.70000	      4.47822e-02	
     19097.90000	      4.35540e-02	
     19133.10000	      4.17346e-02	
     19168.20000	      4.27953e-02	
     19203.30000	      4.09761e-02	
     19238.30000	      4.15497e-02	
     19273.30000	      4.03019e-02	
     19308.30000	      4.05328e-02	
     19343.10000	      4.05278e-02	
     19378.00000	      3.94522e-02	
     19412.80000	      3.90716e-02	
     19447.50000	      3.71558e-02	
     19482.20000	      3.68716e-02	
     19516.80000	      3.71818e-02	
     19551.40000	      3.81944e-02	
     19585.90000	      4.00211e-02	
     19620.40000	      3.94048e-02	
     19654.80000	      3.91930e-02	
     19689.20000	      3.88180e-02	
     19723.60000	      3.73438e-02	
     19757.90000	      3.54165e-02	
     19792.10000	      3.43510e-02	
     19826.30000	      3.45988e-02	
     19860.50000	      3.48159e-02	
     19894.60000	      3.52732e-02	
     19928.60000	      3.61405e-02	
     19962.60000	      3.69000e-02	
     19996.60000	      3.78129e-02	
     20030.50000	      3.74962e-02	
     20064.40000	      3.74163e-02	
     20098.20000	      3.71032e-02	
     20132.00000	      3.68830e-02	
     20165.70000	      3.61496e-02	
     20199.40000	      3.62121e-02	
     20233.00000	      3.56257e-02	
     20266.60000	      3.58591e-02	
     20300.10000	      3.61328e-02	
     20333.60000	      3.62859e-02	
     20367.10000	      3.63191e-02	
     20400.50000	      3.62396e-02	
     20433.90000	      3.64219e-02	
     20467.20000	      3.67839e-02	
     20500.50000	      3.66401e-02	
     20533.70000	      3.72952e-02	
     20566.90000	      3.71466e-02	
     20600.00000	      3.70655e-02	
     20633.10000	      3.66850e-02	
     20666.10000	      3.70166e-02	
     20699.10000	      3.71695e-02	
     20732.10000	      3.68046e-02	
     20765.00000	      3.68361e-02	
     20797.90000	      3.74079e-02	
     20830.70000	      3.70400e-02	
     20863.50000	      3.75171e-02	
     20896.20000	      3.80845e-02	
     20928.90000	      3.79897e-02	
     20961.50000	      3.78428e-02	
     20994.10000	      3.80520e-02	
     21026.70000	      3.82852e-02	
     21059.20000	      3.83180e-02	
     21091.60000	      3.84016e-02	
     21124.00000	      3.89455e-02	
     21156.40000	      3.88035e-02	
     21188.70000	      3.91047e-02	
     21221.00000	      3.96375e-02	
     21253.20000	      3.92209e-02	
     21285.40000	      3.90943e-02	
     21317.60000	      3.94458e-02	
     21349.60000	      3.96243e-02	
     21381.70000	      3.94572e-02	
     21413.70000	      3.97107e-02	
     21445.60000	      4.00795e-02	
     21477.50000	      4.00152e-02	
     21509.40000	      4.01557e-02	
     21541.20000	      3.99784e-02	
     21573.00000	      4.02494e-02	
     21604.70000	      3.97848e-02	
     21636.40000	      4.04080e-02	
     21668.00000	      4.05220e-02	
     21699.60000	      4.04611e-02	
     21731.10000	      3.99207e-02	
     21762.60000	      3.98912e-02	
     21794.00000	      3.99174e-02	
     21825.40000	      4.01928e-02	
     21856.70000	      4.04776e-02	
     21888.00000	      4.03884e-02	
     21919.20000	      3.99223e-02	
     21950.40000	      4.08211e-02	
     21981.60000	      4.04306e-02	
     22012.70000	      4.01572e-02	
     22043.70000	      3.91285e-02	
     22074.70000	      3.84084e-02	
     22105.60000	      3.87158e-02	
     22136.50000	      3.94951e-02	
     22167.40000	      4.02842e-02	
     22198.20000	      4.01129e-02	
     22228.90000	      4.04527e-02	
     22259.60000	      4.02122e-02	
     22290.30000	      4.01951e-02	
     22320.80000	      4.00689e-02	
     22351.40000	      3.97074e-02	
     22381.90000	      4.00526e-02	
     22412.30000	      3.98784e-02	
     22442.70000	      3.99648e-02	
     22473.00000	      3.97994e-02	
     22503.30000	      4.00088e-02	
     22533.60000	      3.97696e-02	
     22563.70000	      3.95885e-02	
     22593.90000	      3.96270e-02	
     22624.00000	      3.93469e-02	
     22654.00000	      3.88372e-02	
     22684.00000	      3.87916e-02	
     22713.90000	      3.85787e-02	
     22743.80000	      3.87508e-02	
     22773.60000	      3.85229e-02	
     22803.30000	      3.87588e-02	
     22833.10000	      3.81718e-02	
     22862.70000	      3.82783e-02	
     22892.30000	      3.82312e-02	
     22921.90000	      3.63431e-02	
     22951.40000	      3.37636e-02	
     22980.90000	      3.25495e-02	
     23010.30000	      3.22252e-02	
     23039.60000	      3.32259e-02	
     23068.90000	      3.35674e-02	
     23098.20000	      3.35236e-02	
     23127.40000	      3.34228e-02	
     23156.50000	      3.35207e-02	
     23185.60000	      3.29082e-02	
     23214.70000	      3.16058e-02	
     23243.70000	      3.01646e-02	
     23272.60000	      2.94669e-02	
     23301.50000	      2.94426e-02	
     23330.30000	      2.98544e-02	
     23359.10000	      3.02908e-02	
     23387.90000	      3.02901e-02	
     23416.60000	      3.06151e-02	
     23445.20000	      3.07517e-02	
     23473.80000	      3.12455e-02	
     23502.40000	      3.04211e-02	
     23530.90000	      2.92579e-02	
     23559.40000	      2.81913e-02	
     23587.80000	      2.76316e-02	
     23616.10000	      2.80878e-02	
     23644.50000	      2.85108e-02	
     23672.70000	      2.89128e-02	
     23701.00000	      2.91198e-02	
     23729.20000	      2.92015e-02	
     23757.30000	      2.90622e-02	
     23785.40000	      2.86063e-02	
     23813.50000	      2.77351e-02	
     23841.50000	      2.73286e-02	
     23869.50000	      2.68904e-02	
     23897.50000	      2.65892e-02	
     23925.40000	      2.67216e-02	
     23953.30000	      2.69785e-02	
     23981.10000	      2.65542e-02	
     24008.90000	      2.62904e-02	
     24036.70000	      2.65190e-02	
     24064.50000	      2.58970e-02	
     24092.20000	      2.54748e-02	
     24119.90000	      2.49808e-02	
     24147.50000	      2.49977e-02	
     24175.20000	      2.48964e-02	
     24202.80000	      2.46372e-02	
     24230.30000	      2.42250e-02	
     24257.90000	      2.37173e-02	
     24285.40000	      2.38091e-02	
     24313.00000	      2.38941e-02	
     24340.50000	      2.35138e-02	
     24368.00000	      2.30321e-02	
     24395.40000	      2.26457e-02	
     24422.90000	      2.28861e-02	
     24450.40000	      2.27265e-02	
     24477.80000	      2.27958e-02	
     24505.20000	      2.19193e-02	
     24532.70000	      2.14447e-02	
     24560.10000	      2.13844e-02	
     24587.60000	      2.16629e-02	
     24615.00000	      2.11578e-02	
     24642.40000	      2.12620e-02	
     24669.90000	      2.08073e-02	
     24697.40000	      2.10684e-02	
     24724.80000	      2.02599e-02	
     24752.30000	      1.99345e-02	
     24779.80000	      2.03218e-02	
     24807.40000	      1.99078e-02	
     24834.90000	      1.97869e-02	
     24862.50000	      1.91947e-02	
     24890.10000	      1.92094e-02	
     24917.80000	      1.95216e-02	
     24945.50000	      1.86167e-02	
     24973.20000	      1.84579e-02	
     25001.00000	      1.85808e-02	
     25028.80000	      1.89218e-02	
     25056.70000	      1.92167e-02	
     25084.60000	      1.98785e-02	
     25112.60000	      1.81157e-02	
     25140.60000	      1.89040e-02	
     25168.80000	      1.87153e-02	
     25196.90000	      1.74069e-02	
     25225.20000	      1.83465e-02	
     25253.50000	      1.80671e-02	
     25282.00000	      1.75691e-02	
     25310.50000	      1.76842e-02	
     25339.10000	      1.98970e-02	
     25367.80000	      1.77833e-02	
     25396.60000	      1.72507e-02	
     25425.50000	      1.86101e-02	
     25454.50000	      1.65113e-02	
     25483.70000	      2.38171e-02	
     25513.00000	      1.64874e-02	
     25542.40000	      1.68801e-02	
     25571.90000	      1.60623e-02	
     25601.60000	      1.52355e-02	
     25631.40000	      1.49027e-02	
     25661.40000	      1.55394e-02	
     25691.50000	      1.08026e-02	
#time:0.015720
