# The SpeX Prism Spectral Libraries
# spty = Opt:L4  (Spectral type)
#
#     WAVELENGTH	#           FLUX	
#     (ANGSTROM)	#  (ERG/CM2/S/A)	
################	################	
      7898.17000	     7.13373e-03	
      7925.33000	     7.18132e-03	
      7952.69000	     9.39745e-03	
      7980.24000	     4.58288e-03	
      8007.98000	     7.74150e-03	
      8035.92000	     8.35410e-03	
      8064.05000	     1.04747e-02	
      8092.37000	     1.47103e-02	
      8120.89000	     1.33656e-02	
      8149.60000	     7.07414e-03	
      8178.51000	     1.51704e-02	
      8207.62000	     1.04642e-02	
      8236.92000	     1.11795e-02	
      8266.42000	     1.41817e-02	
      8296.12000	     1.63522e-02	
      8326.01000	     1.59653e-02	
      8356.11000	     1.34233e-02	
      8386.39000	     1.87013e-02	
      8416.88000	     1.72590e-02	
      8447.56000	     9.28139e-03	
      8478.44000	     2.30337e-02	
      8509.52000	     2.01036e-02	
      8540.79000	     1.95885e-02	
      8572.25000	     1.88896e-02	
      8603.91000	     2.03442e-02	
      8635.77000	     1.78408e-02	
      8667.82000	     1.39574e-02	
      8700.06000	     1.64357e-02	
      8732.49000	     1.53430e-02	
      8765.11000	     1.69715e-02	
      8797.93000	     1.56975e-02	
      8830.93000	     2.03071e-02	
      8864.13000	     1.75843e-02	
      8897.51000	     1.74831e-02	
      8931.07000	     2.22653e-02	
      8964.83000	     2.61852e-02	
      8998.76000	     2.55935e-02	
      9032.88000	     2.34052e-02	
      9067.18000	     2.77545e-02	
      9101.67000	     2.83939e-02	
      9136.33000	     3.04272e-02	
      9171.17000	     3.57261e-02	
      9206.18000	     3.47003e-02	
      9241.38000	     3.28874e-02	
      9276.74000	     3.73925e-02	
      9312.28000	     3.63054e-02	
      9347.99000	     3.62458e-02	
      9383.86000	     3.99309e-02	
      9419.91000	     3.86251e-02	
      9456.12000	     4.00247e-02	
      9492.50000	     4.60311e-02	
      9529.04000	     4.46166e-02	
      9565.73000	     4.71731e-02	
      9602.59000	     4.49501e-02	
      9639.61000	     4.57200e-02	
      9676.78000	     4.39694e-02	
      9714.11000	     4.86212e-02	
      9751.59000	     5.20082e-02	
      9789.22000	     5.18991e-02	
      9826.99000	     5.40240e-02	
      9864.92000	     4.93654e-02	
      9902.99000	     4.61927e-02	
      9941.20000	     3.79629e-02	
      9979.55000	     3.33160e-02	
     10018.00000	     3.48725e-02	
     10056.70000	     3.69983e-02	
     10095.40000	     4.28977e-02	
     10134.30000	     4.37657e-02	
     10173.40000	     4.48820e-02	
     10212.50000	     4.61028e-02	
     10251.80000	     4.48955e-02	
     10291.20000	     4.49240e-02	
     10330.70000	     4.90226e-02	
     10370.40000	     4.96786e-02	
     10410.20000	     5.36765e-02	
     10450.10000	     5.76401e-02	
     10490.10000	     5.78182e-02	
     10530.20000	     5.69244e-02	
     10570.40000	     5.76208e-02	
     10610.70000	     5.68516e-02	
     10651.20000	     5.84321e-02	
     10691.70000	     6.36997e-02	
     10732.40000	     6.34682e-02	
     10773.10000	     6.69951e-02	
     10814.00000	     6.82520e-02	
     10854.90000	     7.31546e-02	
     10895.90000	     7.49772e-02	
     10937.10000	     7.29259e-02	
     10978.30000	     7.98599e-02	
     11019.60000	     7.65691e-02	
     11061.00000	     7.54561e-02	
     11102.40000	     7.46233e-02	
     11144.00000	     7.38317e-02	
     11185.60000	     7.51785e-02	
     11227.30000	     7.54007e-02	
     11269.10000	     7.72323e-02	
     11311.00000	     7.65167e-02	
     11352.90000	     7.05010e-02	
     11394.90000	     7.04574e-02	
     11437.00000	     7.19348e-02	
     11479.10000	     7.75666e-02	
     11521.30000	     7.96073e-02	
     11563.50000	     8.39719e-02	
     11605.90000	     8.08460e-02	
     11648.20000	     7.91082e-02	
     11690.60000	     7.74771e-02	
     11733.10000	     7.30140e-02	
     11775.60000	     7.15039e-02	
     11818.20000	     7.27165e-02	
     11860.80000	     7.67678e-02	
     11903.50000	     7.84632e-02	
     11946.20000	     7.54510e-02	
     11989.00000	     7.07257e-02	
     12031.70000	     7.00539e-02	
     12074.60000	     7.23804e-02	
     12117.40000	     7.78057e-02	
     12160.30000	     7.95328e-02	
     12203.20000	     8.25894e-02	
     12246.20000	     8.60918e-02	
     12289.20000	     8.95506e-02	
     12332.20000	     8.69295e-02	
     12375.20000	     8.34410e-02	
     12418.20000	     7.95809e-02	
     12461.30000	     7.92006e-02	
     12504.40000	     8.07803e-02	
     12547.50000	     8.58381e-02	
     12590.60000	     9.04111e-02	
     12633.80000	     9.79160e-02	
     12676.90000	     9.94999e-02	
     12720.10000	     9.95288e-02	
     12763.20000	     1.02690e-01	
     12806.40000	     1.01204e-01	
     12849.60000	     9.97382e-02	
     12892.80000	     1.01088e-01	
     12935.90000	     9.95028e-02	
     12979.10000	     9.99862e-02	
     13022.30000	     9.84814e-02	
     13065.50000	     9.74207e-02	
     13108.60000	     1.00861e-01	
     13151.80000	     9.89769e-02	
     13195.00000	     9.96138e-02	
     13238.10000	     9.80601e-02	
     13281.30000	     9.09762e-02	
     13324.40000	     8.03944e-02	
     13367.50000	     6.73097e-02	
     13410.60000	     5.67864e-02	
     13453.70000	     5.37464e-02	
     13496.80000	     5.12605e-02	
     13539.80000	     5.28260e-02	
     13582.80000	     5.23801e-02	
     13625.80000	     5.22787e-02	
     13668.80000	     4.98099e-02	
     13711.80000	     5.06023e-02	
     13754.70000	     5.34053e-02	
     13797.60000	     5.85310e-02	
     13840.50000	     5.46287e-02	
     13883.40000	     5.79683e-02	
     13926.20000	     5.60917e-02	
     13969.00000	     5.31824e-02	
     14011.70000	     4.45187e-02	
     14054.50000	     4.87546e-02	
     14097.10000	     4.52373e-02	
     14139.80000	     5.08698e-02	
     14182.40000	     4.21220e-02	
     14225.00000	     4.12002e-02	
     14267.50000	     4.16326e-02	
     14310.10000	     4.39433e-02	
     14352.50000	     4.14146e-02	
     14394.90000	     4.12494e-02	
     14437.30000	     4.37200e-02	
     14479.70000	     4.46665e-02	
     14521.90000	     4.48196e-02	
     14564.20000	     4.64292e-02	
     14606.40000	     4.65684e-02	
     14648.60000	     4.94560e-02	
     14690.70000	     4.77835e-02	
     14732.70000	     4.85862e-02	
     14774.70000	     4.98377e-02	
     14816.70000	     4.98659e-02	
     14858.60000	     5.02099e-02	
     14900.50000	     5.15288e-02	
     14942.30000	     5.20200e-02	
     14984.00000	     5.22223e-02	
     15025.70000	     5.24774e-02	
     15067.40000	     5.62773e-02	
     15109.00000	     5.76811e-02	
     15150.50000	     6.00372e-02	
     15192.00000	     6.02105e-02	
     15233.40000	     6.05124e-02	
     15274.80000	     6.38842e-02	
     15316.10000	     6.33751e-02	
     15357.40000	     6.47061e-02	
     15398.60000	     6.53636e-02	
     15439.70000	     6.72387e-02	
     15480.80000	     6.91599e-02	
     15521.80000	     7.00168e-02	
     15562.80000	     6.98920e-02	
     15603.70000	     7.20793e-02	
     15644.50000	     7.36030e-02	
     15685.30000	     7.35662e-02	
     15726.00000	     7.63490e-02	
     15766.60000	     7.81349e-02	
     15807.20000	     7.62413e-02	
     15847.80000	     7.40015e-02	
     15888.20000	     7.35552e-02	
     15928.60000	     7.65313e-02	
     15969.00000	     7.80583e-02	
     16009.30000	     7.73432e-02	
     16049.50000	     7.72002e-02	
     16089.60000	     7.62844e-02	
     16129.70000	     7.58631e-02	
     16169.70000	     7.67946e-02	
     16209.70000	     7.75267e-02	
     16249.60000	     7.70768e-02	
     16289.40000	     7.73711e-02	
     16329.10000	     7.61499e-02	
     16368.80000	     7.79031e-02	
     16408.50000	     7.75142e-02	
     16448.00000	     8.03072e-02	
     16487.50000	     8.39955e-02	
     16527.00000	     8.40326e-02	
     16566.30000	     8.46654e-02	
     16605.60000	     8.31007e-02	
     16644.90000	     8.32791e-02	
     16684.00000	     8.39751e-02	
     16723.20000	     8.11107e-02	
     16762.20000	     8.39912e-02	
     16801.20000	     8.37540e-02	
     16840.10000	     8.45281e-02	
     16878.90000	     8.62866e-02	
     16917.70000	     8.43872e-02	
     16956.40000	     8.30066e-02	
     16995.00000	     8.31003e-02	
     17033.60000	     8.39584e-02	
     17072.10000	     8.51146e-02	
     17110.60000	     8.13411e-02	
     17149.00000	     8.02923e-02	
     17187.30000	     7.69369e-02	
     17225.60000	     7.45627e-02	
     17263.70000	     7.39583e-02	
     17301.90000	     6.96091e-02	
     17339.90000	     6.87446e-02	
     17377.90000	     6.91474e-02	
     17415.90000	     6.62473e-02	
     17453.70000	     6.60821e-02	
     17491.50000	     6.32869e-02	
     17529.30000	     6.22780e-02	
     17567.00000	     6.01881e-02	
     17604.60000	     5.82074e-02	
     17642.10000	     5.83361e-02	
     17679.60000	     5.67100e-02	
     17717.10000	     5.32091e-02	
     17754.40000	     5.22976e-02	
     17791.70000	     5.15095e-02	
     17829.00000	     4.94778e-02	
     17866.20000	     4.91089e-02	
     17903.30000	     4.70026e-02	
     17940.30000	     4.69615e-02	
     17977.30000	     4.70243e-02	
     18014.30000	     4.70246e-02	
     18051.10000	     4.47846e-02	
     18088.00000	     4.76144e-02	
     18124.70000	     4.53436e-02	
     18161.40000	     4.83964e-02	
     18198.00000	     4.95380e-02	
     18234.60000	     4.91588e-02	
     18271.10000	     5.33022e-02	
     18307.60000	     5.35256e-02	
     18344.00000	     5.04396e-02	
     18380.40000	     5.42901e-02	
     18416.60000	     4.67329e-02	
     18452.90000	     3.76404e-02	
     18489.00000	     4.58278e-02	
     18525.20000	     4.08010e-02	
     18561.20000	     4.66201e-02	
     18597.20000	     4.10186e-02	
     18633.20000	     3.81485e-02	
     18669.10000	     4.45684e-02	
     18704.90000	     3.89773e-02	
     18740.70000	     3.51941e-02	
     18776.40000	     4.38427e-02	
     18812.10000	     4.76397e-02	
     18847.70000	     4.46722e-02	
     18883.30000	     4.52702e-02	
     18918.80000	     4.53600e-02	
     18954.20000	     4.26086e-02	
     18989.60000	     4.52665e-02	
     19025.00000	     4.95937e-02	
     19060.30000	     4.26647e-02	
     19095.50000	     4.89947e-02	
     19130.70000	     4.97871e-02	
     19165.90000	     4.69202e-02	
     19200.90000	     4.84021e-02	
     19236.00000	     4.95519e-02	
     19271.00000	     4.52113e-02	
     19305.90000	     4.74260e-02	
     19340.80000	     4.43222e-02	
     19375.60000	     4.58341e-02	
     19410.40000	     4.27214e-02	
     19445.10000	     4.15737e-02	
     19479.80000	     4.19629e-02	
     19514.50000	     4.15255e-02	
     19549.10000	     4.28031e-02	
     19583.60000	     4.07756e-02	
     19618.10000	     3.95873e-02	
     19652.50000	     3.89901e-02	
     19686.90000	     3.91674e-02	
     19721.30000	     3.93525e-02	
     19755.50000	     3.92005e-02	
     19789.80000	     3.83900e-02	
     19824.00000	     3.78898e-02	
     19858.10000	     3.68820e-02	
     19892.30000	     3.74232e-02	
     19926.30000	     3.71392e-02	
     19960.30000	     3.77981e-02	
     19994.30000	     4.19744e-02	
     20028.20000	     4.40407e-02	
     20062.10000	     3.95498e-02	
     20095.90000	     4.31053e-02	
     20129.70000	     4.04678e-02	
     20163.40000	     4.23672e-02	
     20197.10000	     4.08927e-02	
     20230.70000	     3.99590e-02	
     20264.30000	     4.18338e-02	
     20297.90000	     4.17538e-02	
     20331.40000	     4.10582e-02	
     20364.80000	     4.22287e-02	
     20398.20000	     4.04674e-02	
     20431.60000	     4.26865e-02	
     20464.90000	     4.31599e-02	
     20498.20000	     4.39655e-02	
     20531.40000	     4.51948e-02	
     20564.60000	     4.56287e-02	
     20597.80000	     4.46576e-02	
     20630.90000	     4.71371e-02	
     20663.90000	     4.58705e-02	
     20696.90000	     4.58527e-02	
     20729.90000	     4.58916e-02	
     20762.80000	     4.73023e-02	
     20795.70000	     4.64921e-02	
     20828.50000	     4.63960e-02	
     20861.30000	     4.74889e-02	
     20894.00000	     4.80497e-02	
     20926.70000	     4.80671e-02	
     20959.30000	     4.86180e-02	
     20991.90000	     4.90525e-02	
     21024.50000	     4.93793e-02	
     21057.00000	     4.99266e-02	
     21089.40000	     4.97710e-02	
     21121.80000	     5.09837e-02	
     21154.20000	     5.14674e-02	
     21186.50000	     5.09112e-02	
     21218.80000	     5.07803e-02	
     21251.10000	     5.21010e-02	
     21283.20000	     5.22594e-02	
     21315.40000	     5.24268e-02	
     21347.50000	     5.14135e-02	
     21379.50000	     5.18820e-02	
     21411.50000	     5.25038e-02	
     21443.50000	     5.26604e-02	
     21475.40000	     5.26655e-02	
     21507.20000	     5.33222e-02	
     21539.10000	     5.32448e-02	
     21570.80000	     5.24057e-02	
     21602.50000	     5.30386e-02	
     21634.20000	     5.34015e-02	
     21665.80000	     5.40525e-02	
     21697.40000	     5.54789e-02	
     21729.00000	     5.52823e-02	
     21760.40000	     5.30992e-02	
     21791.90000	     5.39391e-02	
     21823.30000	     5.21652e-02	
     21854.60000	     5.18666e-02	
     21885.90000	     5.30314e-02	
     21917.10000	     5.28474e-02	
     21948.30000	     5.25613e-02	
     21979.50000	     5.28317e-02	
     22010.60000	     5.21156e-02	
     22041.60000	     5.26091e-02	
     22072.60000	     5.28877e-02	
     22103.60000	     5.14713e-02	
     22134.40000	     5.24931e-02	
     22165.30000	     5.35452e-02	
     22196.10000	     5.23764e-02	
     22226.80000	     5.10253e-02	
     22257.50000	     5.18720e-02	
     22288.20000	     5.21731e-02	
     22318.80000	     5.17875e-02	
     22349.30000	     4.95944e-02	
     22379.80000	     5.07610e-02	
     22410.30000	     5.04143e-02	
     22440.70000	     5.06907e-02	
     22471.00000	     5.11842e-02	
     22501.30000	     5.00849e-02	
     22531.50000	     5.11067e-02	
     22561.70000	     4.96651e-02	
     22591.80000	     4.97146e-02	
     22621.90000	     4.99352e-02	
     22652.00000	     4.95152e-02	
     22681.90000	     4.86986e-02	
     22711.90000	     4.89252e-02	
     22741.70000	     4.67568e-02	
     22771.60000	     4.74156e-02	
     22801.30000	     4.82780e-02	
     22831.10000	     4.84774e-02	
     22860.70000	     4.81699e-02	
     22890.30000	     4.74650e-02	
     22919.90000	     4.72156e-02	
     22949.40000	     4.34325e-02	
     22978.90000	     4.04514e-02	
     23008.30000	     3.91699e-02	
     23037.60000	     4.00960e-02	
     23066.90000	     4.04182e-02	
     23096.20000	     3.99929e-02	
     23125.40000	     3.87271e-02	
     23154.50000	     4.04282e-02	
     23183.60000	     4.00711e-02	
     23212.70000	     3.92794e-02	
     23241.70000	     3.90172e-02	
     23270.60000	     3.69013e-02	
     23299.50000	     3.53644e-02	
     23328.40000	     3.58420e-02	
     23357.20000	     3.68512e-02	
     23385.90000	     3.58598e-02	
     23414.60000	     3.71621e-02	
     23443.30000	     3.67036e-02	
     23471.90000	     3.75787e-02	
     23500.50000	     3.82070e-02	
     23529.00000	     3.67264e-02	
     23557.40000	     3.56395e-02	
     23585.90000	     3.48203e-02	
     23614.20000	     3.48195e-02	
     23642.60000	     3.47009e-02	
     23670.80000	     3.32895e-02	
     23699.10000	     3.56922e-02	
     23727.30000	     3.65370e-02	
     23755.40000	     3.71274e-02	
     23783.50000	     3.45678e-02	
     23811.60000	     3.48231e-02	
     23839.60000	     3.39457e-02	
     23867.60000	     3.42350e-02	
     23895.60000	     3.31997e-02	
     23923.50000	     3.33819e-02	
     23951.40000	     3.43125e-02	
     23979.20000	     3.37243e-02	
     24007.10000	     3.30995e-02	
     24034.80000	     3.26247e-02	
     24062.60000	     3.31537e-02	
     24090.30000	     3.15457e-02	
     24118.00000	     3.04871e-02	
     24145.60000	     3.11224e-02	
     24173.30000	     2.91283e-02	
     24200.90000	     2.94856e-02	
     24228.50000	     2.86309e-02	
     24256.00000	     2.94173e-02	
     24283.60000	     2.88713e-02	
     24311.10000	     2.88470e-02	
     24338.60000	     2.87695e-02	
     24366.10000	     2.43819e-02	
     24393.60000	     2.61166e-02	
     24421.00000	     2.52862e-02	
     24448.50000	     2.62232e-02	
     24475.90000	     2.40483e-02	
     24503.40000	     2.54252e-02	
     24530.80000	     2.48834e-02	
     24558.30000	     2.59778e-02	
     24585.70000	     2.48074e-02	
#time:0.013020
