# The SpeX Prism Spectral Libraries
# spty = Opt:M6V  (Spectral type)
#
#     WAVELENGTH	#           FLUX	
#     (ANGSTROM)	#  (ERG/CM2/S/A)	
################	################	
      6544.29000	     1.23858e-02	
      6566.27000	     8.07972e-03	
      6588.17000	     8.93587e-03	
      6609.98000	     3.26893e-03	
      6631.71000	     5.57400e-03	
      6653.39000	     8.02066e-03	
      6675.01000	     6.91951e-03	
      6696.58000	     4.97757e-03	
      6718.11000	     5.75873e-03	
      6739.62000	     6.66392e-03	
      6761.10000	     6.03261e-03	
      6782.58000	     7.40321e-03	
      6804.04000	     5.51121e-03	
      6825.52000	     8.04245e-03	
      6847.00000	     6.98111e-03	
      6868.49000	     8.38881e-03	
      6890.02000	     7.74716e-03	
      6911.57000	     1.08319e-02	
      6933.17000	     9.53493e-03	
      6954.81000	     1.19711e-02	
      6976.50000	     1.56985e-02	
      6998.25000	     1.52923e-02	
      7020.06000	     1.63353e-02	
      7041.94000	     1.41991e-02	
      7063.90000	     1.32860e-02	
      7085.94000	     1.01161e-02	
      7108.06000	     9.30271e-03	
      7130.28000	     8.96996e-03	
      7152.59000	     8.40426e-03	
      7175.01000	     7.67057e-03	
      7197.53000	     7.92547e-03	
      7220.16000	     1.02039e-02	
      7242.91000	     1.30392e-02	
      7265.78000	     1.57405e-02	
      7288.77000	     1.96197e-02	
      7311.89000	     2.25509e-02	
      7335.15000	     2.67324e-02	
      7358.54000	     3.06503e-02	
      7382.07000	     3.18490e-02	
      7405.74000	     3.28710e-02	
      7429.56000	     3.39179e-02	
      7453.53000	     3.52524e-02	
      7477.65000	     3.75779e-02	
      7501.92000	     3.90450e-02	
      7526.36000	     4.06593e-02	
      7550.96000	     3.95742e-02	
      7575.72000	     3.92808e-02	
      7600.65000	     3.44940e-02	
      7625.75000	     2.56366e-02	
      7651.01000	     1.88664e-02	
      7676.46000	     1.65187e-02	
      7702.08000	     1.69011e-02	
      7727.87000	     1.89978e-02	
      7753.85000	     2.09948e-02	
      7780.01000	     2.32112e-02	
      7806.35000	     2.38570e-02	
      7832.87000	     2.60098e-02	
      7859.58000	     2.66625e-02	
      7886.48000	     2.87457e-02	
      7913.56000	     2.92437e-02	
      7940.84000	     3.25165e-02	
      7968.31000	     3.37727e-02	
      7995.97000	     3.73051e-02	
      8023.82000	     4.25532e-02	
      8051.86000	     4.82303e-02	
      8080.10000	     5.32278e-02	
      8108.53000	     5.81376e-02	
      8137.16000	     5.96233e-02	
      8165.99000	     5.85205e-02	
      8195.01000	     5.85148e-02	
      8224.23000	     5.90739e-02	
      8253.64000	     6.00029e-02	
      8283.26000	     5.97216e-02	
      8313.07000	     5.77850e-02	
      8343.07000	     5.63058e-02	
      8373.27000	     5.58312e-02	
      8403.68000	     5.19553e-02	
      8434.27000	     4.64238e-02	
      8465.07000	     4.28330e-02	
      8496.06000	     3.99832e-02	
      8527.24000	     4.20755e-02	
      8558.62000	     4.41971e-02	
      8590.20000	     4.69120e-02	
      8621.97000	     4.87639e-02	
      8653.94000	     4.88744e-02	
      8686.09000	     4.99287e-02	
      8718.44000	     5.30645e-02	
      8750.99000	     5.60544e-02	
      8783.72000	     6.09401e-02	
      8816.64000	     6.20701e-02	
      8849.75000	     6.19645e-02	
      8883.05000	     6.10242e-02	
      8916.54000	     6.20870e-02	
      8950.21000	     6.55489e-02	
      8984.07000	     6.80392e-02	
      9018.11000	     6.95489e-02	
      9052.33000	     7.31030e-02	
      9086.74000	     7.56677e-02	
      9121.32000	     8.04878e-02	
      9156.08000	     8.27527e-02	
      9191.02000	     8.30993e-02	
      9226.14000	     7.97537e-02	
      9261.43000	     7.90513e-02	
      9296.89000	     7.88458e-02	
      9332.53000	     7.93471e-02	
      9368.33000	     7.98060e-02	
      9404.30000	     8.06396e-02	
      9440.44000	     8.32115e-02	
      9476.75000	     8.60114e-02	
      9513.22000	     8.59288e-02	
      9549.85000	     8.53527e-02	
      9586.64000	     8.60441e-02	
      9623.59000	     8.69886e-02	
      9660.69000	     8.83291e-02	
      9697.95000	     8.92052e-02	
      9735.36000	     8.97639e-02	
      9772.93000	     9.06257e-02	
      9810.64000	     9.06355e-02	
      9848.50000	     8.85482e-02	
      9886.51000	     8.45857e-02	
      9924.66000	     8.08411e-02	
      9962.95000	     7.97969e-02	
     10001.40000	     8.17354e-02	
     10040.00000	     8.17629e-02	
     10078.70000	     8.40841e-02	
     10117.50000	     8.67985e-02	
     10156.50000	     8.88686e-02	
     10195.60000	     8.76055e-02	
     10234.80000	     8.78132e-02	
     10274.20000	     8.72228e-02	
     10313.60000	     8.87886e-02	
     10353.20000	     9.01501e-02	
     10393.00000	     9.26891e-02	
     10432.80000	     9.39849e-02	
     10472.70000	     9.37751e-02	
     10512.80000	     9.34237e-02	
     10553.00000	     9.32866e-02	
     10593.30000	     9.28722e-02	
     10633.70000	     9.40305e-02	
     10674.20000	     9.51913e-02	
     10714.80000	     9.57927e-02	
     10755.50000	     9.79260e-02	
     10796.30000	     9.91120e-02	
     10837.20000	     1.00278e-01	
     10878.20000	     1.02210e-01	
     10919.30000	     9.99832e-02	
     10960.50000	     9.98118e-02	
     11001.70000	     1.00121e-01	
     11043.10000	     1.00157e-01	
     11084.50000	     9.91209e-02	
     11126.00000	     9.91080e-02	
     11167.60000	     9.95702e-02	
     11209.30000	     9.99782e-02	
     11251.10000	     9.96618e-02	
     11292.90000	     9.87262e-02	
     11334.80000	     9.47475e-02	
     11376.70000	     9.20650e-02	
     11418.80000	     9.27633e-02	
     11460.90000	     9.57619e-02	
     11503.00000	     9.97619e-02	
     11545.30000	     1.00206e-01	
     11587.60000	     9.95580e-02	
     11629.90000	     9.79546e-02	
     11672.30000	     9.62470e-02	
     11714.70000	     9.49406e-02	
     11757.30000	     9.34089e-02	
     11799.80000	     9.37789e-02	
     11842.40000	     9.38102e-02	
     11885.00000	     9.45374e-02	
     11927.70000	     9.23544e-02	
     11970.50000	     9.11762e-02	
     12013.20000	     9.03285e-02	
     12056.00000	     9.12770e-02	
     12098.90000	     9.26091e-02	
     12141.80000	     9.39054e-02	
     12184.70000	     9.43734e-02	
     12227.60000	     9.56809e-02	
     12270.60000	     9.47121e-02	
     12313.60000	     9.46758e-02	
     12356.60000	     9.17824e-02	
     12399.60000	     9.04939e-02	
     12442.70000	     8.87624e-02	
     12485.80000	     8.87913e-02	
     12528.90000	     9.00697e-02	
     12572.00000	     9.15582e-02	
     12615.10000	     9.27237e-02	
     12658.30000	     9.40809e-02	
     12701.40000	     9.39391e-02	
     12744.60000	     9.52653e-02	
     12787.70000	     9.39518e-02	
     12830.90000	     9.27268e-02	
     12874.10000	     9.27894e-02	
     12917.30000	     9.35777e-02	
     12960.40000	     9.32191e-02	
     13003.60000	     9.34779e-02	
     13046.80000	     9.29718e-02	
     13090.00000	     9.24315e-02	
     13133.10000	     9.17759e-02	
     13176.30000	     9.25704e-02	
     13219.50000	     9.21364e-02	
     13262.60000	     9.10549e-02	
     13305.70000	     8.75083e-02	
     13348.90000	     8.32662e-02	
     13392.00000	     7.99525e-02	
     13435.10000	     7.95457e-02	
     13478.10000	     7.85378e-02	
     13521.20000	     7.96455e-02	
     13564.20000	     7.91712e-02	
     13607.20000	     7.95930e-02	
     13650.20000	     7.94832e-02	
     13693.20000	     7.93650e-02	
     13736.20000	     7.75217e-02	
     13779.10000	     7.75413e-02	
     13822.00000	     7.79708e-02	
     13864.80000	     7.61906e-02	
     13907.70000	     7.59774e-02	
     13950.50000	     7.47109e-02	
     13993.20000	     7.21509e-02	
     14036.00000	     7.19372e-02	
     14078.70000	     7.11477e-02	
     14121.40000	     6.99875e-02	
     14164.00000	     6.89848e-02	
     14206.60000	     6.86327e-02	
     14249.20000	     6.76037e-02	
     14291.70000	     6.73046e-02	
     14334.20000	     6.68383e-02	
     14376.60000	     6.74879e-02	
     14419.00000	     6.71823e-02	
     14461.40000	     6.75598e-02	
     14503.70000	     6.67536e-02	
     14545.90000	     6.68228e-02	
     14588.20000	     6.62212e-02	
     14630.30000	     6.62816e-02	
     14672.50000	     6.55936e-02	
     14714.50000	     6.52226e-02	
     14756.60000	     6.42970e-02	
     14798.60000	     6.47179e-02	
     14840.50000	     6.41757e-02	
     14882.40000	     6.49420e-02	
     14924.20000	     6.49036e-02	
     14966.00000	     6.51937e-02	
     15007.70000	     6.48957e-02	
     15049.40000	     6.51660e-02	
     15091.00000	     6.47594e-02	
     15132.60000	     6.46871e-02	
     15174.10000	     6.47429e-02	
     15215.50000	     6.52016e-02	
     15256.90000	     6.54802e-02	
     15298.30000	     6.62128e-02	
     15339.50000	     6.56241e-02	
     15380.80000	     6.59187e-02	
     15421.90000	     6.57867e-02	
     15463.00000	     6.58079e-02	
     15504.10000	     6.60426e-02	
     15545.10000	     6.60908e-02	
     15586.00000	     6.58013e-02	
     15626.80000	     6.59092e-02	
     15667.70000	     6.57876e-02	
     15708.40000	     6.59734e-02	
     15749.10000	     6.58180e-02	
     15789.70000	     6.58862e-02	
     15830.20000	     6.55019e-02	
     15870.70000	     6.48446e-02	
     15911.20000	     6.49299e-02	
     15951.50000	     6.55838e-02	
     15991.80000	     6.54911e-02	
     16032.10000	     6.56461e-02	
     16072.30000	     6.49771e-02	
     16112.40000	     6.45641e-02	
     16152.40000	     6.42702e-02	
     16192.40000	     6.43834e-02	
     16232.30000	     6.39589e-02	
     16272.20000	     6.37966e-02	
     16312.00000	     6.38880e-02	
     16351.70000	     6.42509e-02	
     16391.30000	     6.44598e-02	
     16430.90000	     6.47141e-02	
     16470.50000	     6.51419e-02	
     16509.90000	     6.53885e-02	
     16549.30000	     6.49564e-02	
     16588.70000	     6.47585e-02	
     16627.90000	     6.43180e-02	
     16667.10000	     6.40492e-02	
     16706.20000	     6.41502e-02	
     16745.30000	     6.36681e-02	
     16784.30000	     6.36939e-02	
     16823.30000	     6.39926e-02	
     16862.10000	     6.40038e-02	
     16900.90000	     6.34044e-02	
     16939.70000	     6.26996e-02	
     16978.30000	     6.26855e-02	
     17017.00000	     6.23969e-02	
     17055.50000	     6.22252e-02	
     17094.00000	     6.12772e-02	
     17132.40000	     6.06364e-02	
     17170.70000	     5.95619e-02	
     17209.00000	     5.90164e-02	
     17247.20000	     5.84117e-02	
     17285.40000	     5.80591e-02	
     17323.50000	     5.76463e-02	
     17361.50000	     5.67310e-02	
     17399.50000	     5.59887e-02	
     17437.40000	     5.58329e-02	
     17475.20000	     5.48813e-02	
     17513.00000	     5.39667e-02	
     17550.70000	     5.29052e-02	
     17588.30000	     5.22217e-02	
     17625.90000	     5.16913e-02	
     17663.40000	     5.12830e-02	
     17700.90000	     5.02899e-02	
     17738.30000	     4.95694e-02	
     17775.60000	     4.89859e-02	
     17812.90000	     4.86708e-02	
     17850.10000	     4.80506e-02	
     17887.20000	     4.73556e-02	
     17924.30000	     4.69330e-02	
     17961.30000	     4.66623e-02	
     17998.30000	     4.64212e-02	
     18035.20000	     4.62495e-02	
     18072.00000	     4.58026e-02	
     18108.80000	     4.58740e-02	
     18145.50000	     4.54696e-02	
     18182.20000	     4.57697e-02	
     18218.80000	     4.57071e-02	
     18255.40000	     4.59962e-02	
     18291.80000	     4.72496e-02	
     18328.30000	     4.65513e-02	
     18364.60000	     4.56649e-02	
     18401.00000	     4.50852e-02	
     18437.20000	     4.33787e-02	
     18473.40000	     4.35019e-02	
     18509.60000	     4.27060e-02	
     18545.60000	     4.16976e-02	
     18581.70000	     4.10169e-02	
     18617.60000	     4.05619e-02	
     18653.50000	     4.13048e-02	
     18689.40000	     4.11344e-02	
     18725.20000	     4.04318e-02	
     18761.00000	     3.99118e-02	
     18796.70000	     3.94164e-02	
     18832.30000	     4.05137e-02	
     18867.90000	     4.03938e-02	
     18903.40000	     4.11637e-02	
     18938.90000	     4.08906e-02	
     18974.30000	     4.10919e-02	
     19009.70000	     4.14120e-02	
     19045.00000	     4.19668e-02	
     19080.30000	     4.14629e-02	
     19115.50000	     4.20113e-02	
     19150.70000	     4.13853e-02	
     19185.80000	     4.07479e-02	
     19220.80000	     4.04413e-02	
     19255.80000	     3.92469e-02	
     19290.80000	     3.84574e-02	
     19325.70000	     3.83455e-02	
     19360.60000	     3.83204e-02	
     19395.40000	     3.74743e-02	
     19430.10000	     3.59822e-02	
     19464.80000	     3.47883e-02	
     19499.50000	     3.40232e-02	
     19534.10000	     3.54253e-02	
     19568.70000	     3.63334e-02	
     19603.20000	     3.70876e-02	
     19637.60000	     3.71064e-02	
     19672.00000	     3.69969e-02	
     19706.40000	     3.58361e-02	
     19740.70000	     3.39893e-02	
     19775.00000	     3.26636e-02	
     19809.20000	     3.23265e-02	
     19843.40000	     3.25067e-02	
     19877.50000	     3.31952e-02	
     19911.60000	     3.32389e-02	
     19945.60000	     3.39181e-02	
     19979.60000	     3.43920e-02	
     20013.50000	     3.46787e-02	
     20047.40000	     3.50239e-02	
     20081.30000	     3.45906e-02	
     20115.10000	     3.43810e-02	
     20148.80000	     3.40695e-02	
     20182.50000	     3.38873e-02	
     20216.20000	     3.40069e-02	
     20249.80000	     3.38007e-02	
     20283.40000	     3.37183e-02	
     20316.90000	     3.36531e-02	
     20350.40000	     3.37930e-02	
     20383.80000	     3.35015e-02	
     20417.20000	     3.34905e-02	
     20450.50000	     3.32840e-02	
     20483.80000	     3.33979e-02	
     20517.10000	     3.33922e-02	
     20550.30000	     3.35278e-02	
     20583.40000	     3.35746e-02	
     20616.60000	     3.34643e-02	
     20649.60000	     3.34263e-02	
     20682.60000	     3.31943e-02	
     20715.60000	     3.31250e-02	
     20748.60000	     3.31267e-02	
     20781.40000	     3.32158e-02	
     20814.30000	     3.30811e-02	
     20847.10000	     3.29441e-02	
     20879.80000	     3.30871e-02	
     20912.50000	     3.31998e-02	
     20945.20000	     3.33444e-02	
     20977.80000	     3.31346e-02	
     21010.40000	     3.32124e-02	
     21042.90000	     3.32525e-02	
     21075.40000	     3.33487e-02	
     21107.80000	     3.31527e-02	
     21140.20000	     3.32446e-02	
     21172.60000	     3.32127e-02	
     21204.90000	     3.32282e-02	
     21237.10000	     3.32592e-02	
     21269.30000	     3.34242e-02	
     21301.50000	     3.32898e-02	
     21333.60000	     3.32234e-02	
     21365.70000	     3.33452e-02	
     21397.70000	     3.32217e-02	
     21429.70000	     3.33972e-02	
     21461.60000	     3.33611e-02	
     21493.50000	     3.33951e-02	
     21525.30000	     3.31544e-02	
     21557.10000	     3.31730e-02	
     21588.80000	     3.28906e-02	
     21620.50000	     3.29527e-02	
     21652.20000	     3.32127e-02	
     21683.80000	     3.32762e-02	
     21715.30000	     3.30119e-02	
     21746.80000	     3.29228e-02	
     21778.30000	     3.28474e-02	
     21809.70000	     3.28443e-02	
     21841.10000	     3.30107e-02	
     21872.40000	     3.29832e-02	
     21903.60000	     3.30052e-02	
     21934.80000	     3.26829e-02	
     21966.00000	     3.31429e-02	
     21997.10000	     3.27421e-02	
     22028.20000	     3.19665e-02	
     22059.20000	     3.08921e-02	
     22090.20000	     3.07133e-02	
     22121.10000	     3.12312e-02	
     22152.00000	     3.21238e-02	
     22182.80000	     3.27593e-02	
     22213.60000	     3.27755e-02	
     22244.30000	     3.29775e-02	
     22274.90000	     3.27603e-02	
     22305.60000	     3.26932e-02	
     22336.10000	     3.24265e-02	
     22366.60000	     3.24812e-02	
     22397.10000	     3.24349e-02	
     22427.50000	     3.23241e-02	
     22457.90000	     3.22522e-02	
     22488.20000	     3.23446e-02	
     22518.50000	     3.24153e-02	
     22548.70000	     3.23248e-02	
     22578.80000	     3.23415e-02	
     22608.90000	     3.16802e-02	
     22639.00000	     3.13126e-02	
     22669.00000	     3.12973e-02	
     22698.90000	     3.14236e-02	
     22728.80000	     3.14837e-02	
     22758.70000	     3.15594e-02	
     22788.50000	     3.15484e-02	
     22818.20000	     3.14221e-02	
     22847.90000	     3.14240e-02	
     22877.50000	     3.12278e-02	
     22907.10000	     3.05999e-02	
     22936.70000	     2.93855e-02	
     22966.10000	     2.78573e-02	
     22995.60000	     2.78270e-02	
     23025.00000	     2.82365e-02	
     23054.30000	     2.86227e-02	
     23083.60000	     2.85382e-02	
     23112.80000	     2.87003e-02	
     23142.00000	     2.82023e-02	
     23171.10000	     2.81763e-02	
     23200.10000	     2.74758e-02	
     23229.20000	     2.65106e-02	
     23258.10000	     2.58851e-02	
     23287.10000	     2.55920e-02	
     23315.90000	     2.59398e-02	
     23344.70000	     2.58009e-02	
     23373.50000	     2.54893e-02	
     23402.20000	     2.55449e-02	
     23430.90000	     2.58508e-02	
     23459.50000	     2.60403e-02	
     23488.10000	     2.61494e-02	
     23516.70000	     2.52582e-02	
     23545.10000	     2.43085e-02	
     23573.60000	     2.41758e-02	
     23602.00000	     2.44114e-02	
     23630.30000	     2.47318e-02	
     23658.60000	     2.47793e-02	
     23686.90000	     2.51723e-02	
     23715.10000	     2.49340e-02	
     23743.30000	     2.51088e-02	
     23771.40000	     2.49641e-02	
     23799.50000	     2.44176e-02	
     23827.50000	     2.35184e-02	
     23855.50000	     2.31790e-02	
     23883.50000	     2.29925e-02	
     23911.40000	     2.30897e-02	
     23939.30000	     2.31805e-02	
     23967.20000	     2.32646e-02	
     23995.00000	     2.31102e-02	
     24022.80000	     2.28281e-02	
     24050.60000	     2.25462e-02	
     24078.30000	     2.22263e-02	
     24106.00000	     2.20744e-02	
     24133.70000	     2.14650e-02	
     24161.30000	     2.13491e-02	
     24189.00000	     2.10238e-02	
     24216.50000	     2.11038e-02	
     24244.10000	     2.10975e-02	
     24271.70000	     2.11246e-02	
     24299.20000	     2.07898e-02	
     24326.70000	     2.05432e-02	
     24354.20000	     2.04883e-02	
     24381.70000	     2.01548e-02	
     24409.20000	     2.00795e-02	
     24436.60000	     1.98750e-02	
     24464.10000	     1.96519e-02	
     24491.50000	     1.94219e-02	
     24519.00000	     1.90307e-02	
     24546.40000	     1.91585e-02	
     24573.80000	     1.88725e-02	
     24601.30000	     1.87580e-02	
     24628.70000	     1.85826e-02	
     24656.20000	     1.89551e-02	
     24683.60000	     1.85178e-02	
     24711.10000	     1.82359e-02	
     24738.60000	     1.81261e-02	
     24766.10000	     1.78190e-02	
     24793.60000	     1.76459e-02	
     24821.20000	     1.74801e-02	
     24848.70000	     1.76519e-02	
     24876.30000	     1.75553e-02	
     24904.00000	     1.71926e-02	
     24931.60000	     1.73058e-02	
     24959.30000	     1.74302e-02	
     24987.10000	     1.71926e-02	
     25014.90000	     1.67194e-02	
     25042.70000	     1.64849e-02	
     25070.60000	     1.65817e-02	
     25098.60000	     1.68344e-02	
     25126.60000	     1.67656e-02	
     25154.70000	     1.61107e-02	
     25182.80000	     1.64402e-02	
     25211.10000	     1.62562e-02	
     25239.40000	     1.63171e-02	
     25267.70000	     1.63578e-02	
     25296.20000	     1.64293e-02	
     25324.80000	     1.66132e-02	
     25353.40000	     1.65656e-02	
     25382.20000	     1.66391e-02	
     25411.00000	     1.66494e-02	
     25440.00000	     1.61734e-02	
     25469.10000	     1.58535e-02	
     25498.30000	     1.65914e-02	
     25527.60000	     1.60412e-02	
     25557.10000	     1.62801e-02	
     25586.70000	     1.58857e-02	
     25616.50000	     1.57350e-02	
     25646.40000	     1.72648e-02	
#time:0.015607
