# The SpeX Prism Spectral Libraries
# spty = Opt:L7,NIR:L5.5  (Spectral type)
#
#     WAVELENGTH	#            FLUX	
#     (ANGSTROM)	#   (ERG/CM2/S/A)	
################	#################	
      6532.51000	      2.31097e-02	
      6554.55000	     -2.30553e-02	
      6576.49000	     -1.25261e-02	
      6598.35000	     -5.16511e-03	
      6620.12000	      1.95508e-02	
      6641.83000	      1.09027e-02	
      6663.48000	     -2.37842e-02	
      6685.07000	      1.04848e-02	
      6706.62000	      3.53457e-02	
      6728.14000	      2.86318e-02	
      6749.64000	      5.26311e-02	
      6771.12000	      1.31513e-02	
      6792.59000	      4.04108e-03	
      6814.06000	     -3.07258e-02	
      6835.53000	     -2.24853e-02	
      6857.02000	     -5.65642e-03	
      6878.53000	     -4.66345e-02	
      6900.07000	      1.60771e-02	
      6921.64000	     -7.17274e-03	
      6943.25000	     -6.36437e-03	
      6964.92000	      5.99622e-03	
      6986.63000	      9.41178e-03	
      7008.41000	      1.11709e-02	
      7030.25000	      1.28003e-02	
      7052.17000	     -5.72055e-03	
      7074.16000	      9.23647e-05	
      7096.24000	      8.03388e-03	
      7118.41000	      7.25885e-03	
      7140.67000	     -2.40345e-03	
      7163.03000	      2.12890e-02	
      7185.50000	     -7.58924e-03	
      7208.07000	      1.05959e-02	
      7230.76000	      7.88224e-04	
      7253.56000	     -1.06742e-02	
      7276.49000	      4.00545e-03	
      7299.54000	      9.57833e-03	
      7322.72000	      6.25264e-03	
      7346.04000	      1.69070e-03	
      7369.49000	      4.28213e-04	
      7393.09000	      6.07150e-03	
      7416.83000	      3.55112e-03	
      7440.71000	     -3.33791e-03	
      7464.75000	      1.13301e-03	
      7488.95000	     -5.08398e-03	
      7513.30000	      1.59803e-02	
      7537.81000	      3.92496e-03	
      7562.48000	      2.99752e-03	
      7587.32000	      3.92027e-03	
      7612.33000	      2.85026e-04	
      7637.51000	      9.12582e-03	
      7662.86000	      6.89855e-03	
      7688.38000	     -4.55308e-03	
      7714.08000	      6.96242e-03	
      7739.96000	     -9.28804e-03	
      7766.02000	     -1.81727e-03	
      7792.27000	      2.28126e-03	
      7818.69000	      4.56104e-03	
      7845.30000	      3.01935e-03	
      7872.10000	      7.06462e-03	
      7899.09000	      1.02570e-03	
      7926.26000	      1.29650e-02	
      7953.62000	      3.48268e-03	
      7981.18000	      7.50873e-03	
      8008.93000	      8.81364e-03	
      8036.87000	      1.93024e-02	
      8065.01000	      9.52498e-03	
      8093.34000	      1.01988e-02	
      8121.86000	      1.92066e-02	
      8150.58000	      9.38587e-03	
      8179.50000	      1.11138e-02	
      8208.61000	      1.61698e-02	
      8237.92000	      1.24871e-02	
      8267.43000	      1.72853e-02	
      8297.13000	      1.25270e-02	
      8327.03000	      1.48623e-02	
      8357.13000	      1.06320e-02	
      8387.43000	      1.67730e-02	
      8417.92000	      2.30814e-02	
      8448.61000	      1.95869e-02	
      8479.49000	      2.00594e-02	
      8510.57000	      2.33500e-02	
      8541.85000	      2.28888e-02	
      8573.32000	      2.04475e-02	
      8604.99000	      1.97546e-02	
      8636.85000	      2.00428e-02	
      8668.91000	      1.61189e-02	
      8701.15000	      1.78083e-02	
      8733.59000	      1.86638e-02	
      8766.22000	      1.92421e-02	
      8799.05000	      2.30567e-02	
      8832.06000	      2.50773e-02	
      8865.26000	      2.57788e-02	
      8898.64000	      2.62375e-02	
      8932.22000	      2.64035e-02	
      8965.98000	      2.69807e-02	
      8999.92000	      2.54223e-02	
      9034.04000	      3.17306e-02	
      9068.35000	      3.01514e-02	
      9102.84000	      3.60408e-02	
      9137.51000	      3.55080e-02	
      9172.35000	      3.80098e-02	
      9207.38000	      3.80188e-02	
      9242.57000	      4.15564e-02	
      9277.94000	      4.32641e-02	
      9313.49000	      3.80407e-02	
      9349.20000	      4.10746e-02	
      9385.09000	      4.26563e-02	
      9421.14000	      4.07300e-02	
      9457.35000	      4.43287e-02	
      9493.73000	      4.83605e-02	
      9530.28000	      4.76373e-02	
      9566.98000	      4.79651e-02	
      9603.85000	      4.68041e-02	
      9640.87000	      4.86772e-02	
      9678.05000	      5.08266e-02	
      9715.38000	      5.08127e-02	
      9752.86000	      5.64320e-02	
      9790.50000	      5.45479e-02	
      9828.28000	      5.83709e-02	
      9866.21000	      5.41077e-02	
      9904.28000	      4.78936e-02	
      9942.50000	      4.87247e-02	
      9980.85000	      4.63540e-02	
     10019.40000	      4.73653e-02	
     10058.00000	      4.91242e-02	
     10096.80000	      5.18775e-02	
     10135.70000	      5.19382e-02	
     10174.70000	      5.16836e-02	
     10213.80000	      5.31781e-02	
     10253.10000	      5.68730e-02	
     10292.50000	      5.50372e-02	
     10332.10000	      6.26537e-02	
     10371.70000	      6.23625e-02	
     10411.50000	      6.61006e-02	
     10451.40000	      6.46934e-02	
     10491.40000	      6.58659e-02	
     10531.50000	      6.99607e-02	
     10571.80000	      7.25904e-02	
     10612.10000	      7.15028e-02	
     10652.50000	      6.94835e-02	
     10693.10000	      7.14999e-02	
     10733.70000	      7.12513e-02	
     10774.50000	      7.71275e-02	
     10815.30000	      7.68636e-02	
     10856.30000	      7.61008e-02	
     10897.30000	      8.04929e-02	
     10938.50000	      7.44405e-02	
     10979.70000	      7.55564e-02	
     11021.00000	      7.40276e-02	
     11062.40000	      7.25304e-02	
     11103.90000	      7.14937e-02	
     11145.40000	      6.76628e-02	
     11187.10000	      6.92743e-02	
     11228.80000	      7.26234e-02	
     11270.60000	      7.20304e-02	
     11312.40000	      6.93780e-02	
     11354.30000	      6.86695e-02	
     11396.30000	      6.69530e-02	
     11438.40000	      6.83660e-02	
     11480.50000	      7.37629e-02	
     11522.70000	      7.33444e-02	
     11565.00000	      7.38412e-02	
     11607.30000	      7.40996e-02	
     11649.70000	      7.27836e-02	
     11692.10000	      6.99913e-02	
     11734.60000	      6.60038e-02	
     11777.10000	      7.09754e-02	
     11819.70000	      7.31793e-02	
     11862.30000	      7.72781e-02	
     11904.90000	      7.93956e-02	
     11947.70000	      7.70013e-02	
     11990.40000	      7.87194e-02	
     12033.20000	      8.04970e-02	
     12076.00000	      8.02448e-02	
     12118.90000	      8.40880e-02	
     12161.80000	      8.73402e-02	
     12204.70000	      8.89884e-02	
     12247.60000	      9.28414e-02	
     12290.60000	      8.96982e-02	
     12333.60000	      9.11069e-02	
     12376.70000	      8.59198e-02	
     12419.70000	      8.79383e-02	
     12462.80000	      8.65217e-02	
     12505.90000	      8.97556e-02	
     12549.00000	      9.37449e-02	
     12592.10000	      9.59425e-02	
     12635.20000	      9.81085e-02	
     12678.40000	      1.00821e-01	
     12721.50000	      9.94180e-02	
     12764.70000	      1.05626e-01	
     12807.90000	      1.03705e-01	
     12851.00000	      9.99863e-02	
     12894.20000	      9.90564e-02	
     12937.40000	      9.72527e-02	
     12980.60000	      9.67898e-02	
     13023.80000	      9.76618e-02	
     13066.90000	      9.93333e-02	
     13110.10000	      1.00008e-01	
     13153.30000	      1.01089e-01	
     13196.40000	      9.94917e-02	
     13239.60000	      9.33984e-02	
     13282.70000	      8.51513e-02	
     13325.80000	      7.11125e-02	
     13369.00000	      5.54269e-02	
     13412.10000	      4.75175e-02	
     13455.10000	      4.35681e-02	
     13498.20000	      4.11812e-02	
     13541.30000	      4.19491e-02	
     13584.30000	      3.65735e-02	
     13627.30000	      4.36760e-02	
     13670.30000	      4.57653e-02	
     13713.20000	      4.37813e-02	
     13756.20000	      4.46897e-02	
     13799.10000	      4.21432e-02	
     13842.00000	      4.33354e-02	
     13884.80000	      4.42287e-02	
     13927.60000	      4.33989e-02	
     13970.40000	      4.32650e-02	
     14013.20000	      3.97144e-02	
     14055.90000	      4.27208e-02	
     14098.60000	      3.83074e-02	
     14141.20000	      3.69655e-02	
     14183.90000	      3.67384e-02	
     14226.40000	      3.53731e-02	
     14269.00000	      3.53450e-02	
     14311.50000	      3.44254e-02	
     14354.00000	      3.69102e-02	
     14396.40000	      3.82606e-02	
     14438.80000	      4.17080e-02	
     14481.10000	      4.01492e-02	
     14523.40000	      4.14630e-02	
     14565.60000	      4.49634e-02	
     14607.80000	      4.70259e-02	
     14650.00000	      5.07619e-02	
     14692.10000	      4.56270e-02	
     14734.10000	      4.85319e-02	
     14776.20000	      4.75758e-02	
     14818.10000	      5.04262e-02	
     14860.00000	      5.36404e-02	
     14901.90000	      5.28493e-02	
     14943.70000	      5.40684e-02	
     14985.40000	      5.48252e-02	
     15027.10000	      5.33654e-02	
     15068.80000	      6.06316e-02	
     15110.40000	      6.11053e-02	
     15151.90000	      6.29610e-02	
     15193.40000	      6.32355e-02	
     15234.80000	      6.40023e-02	
     15276.20000	      6.56967e-02	
     15317.50000	      6.71560e-02	
     15358.80000	      7.01231e-02	
     15400.00000	      7.35526e-02	
     15441.10000	      7.27902e-02	
     15482.20000	      7.49140e-02	
     15523.20000	      7.85596e-02	
     15564.10000	      7.75870e-02	
     15605.00000	      8.16630e-02	
     15645.90000	      8.31098e-02	
     15686.70000	      8.14298e-02	
     15727.40000	      8.23224e-02	
     15768.00000	      8.47161e-02	
     15808.60000	      8.44409e-02	
     15849.10000	      8.03561e-02	
     15889.60000	      8.07928e-02	
     15930.00000	      8.45941e-02	
     15970.30000	      8.61822e-02	
     16010.60000	      8.56093e-02	
     16050.80000	      8.58083e-02	
     16091.00000	      8.45145e-02	
     16131.10000	      8.33278e-02	
     16171.10000	      8.37964e-02	
     16211.00000	      8.54088e-02	
     16250.90000	      8.24912e-02	
     16290.70000	      8.41125e-02	
     16330.50000	      8.56732e-02	
     16370.20000	      8.27685e-02	
     16409.80000	      8.37566e-02	
     16449.40000	      8.62927e-02	
     16488.90000	      8.59369e-02	
     16528.30000	      8.32461e-02	
     16567.70000	      8.54786e-02	
     16607.00000	      8.42659e-02	
     16646.20000	      8.18299e-02	
     16685.40000	      8.67413e-02	
     16724.50000	      8.55395e-02	
     16763.50000	      8.29773e-02	
     16802.50000	      8.40793e-02	
     16841.40000	      8.37309e-02	
     16880.20000	      8.59400e-02	
     16919.00000	      8.57132e-02	
     16957.70000	      8.21245e-02	
     16996.40000	      8.34302e-02	
     17034.90000	      8.22077e-02	
     17073.50000	      7.97274e-02	
     17111.90000	      8.01198e-02	
     17150.30000	      7.65252e-02	
     17188.60000	      7.53295e-02	
     17226.90000	      7.31786e-02	
     17265.00000	      7.27745e-02	
     17303.20000	      7.00948e-02	
     17341.20000	      6.84190e-02	
     17379.20000	      6.57905e-02	
     17417.20000	      6.42345e-02	
     17455.00000	      6.13758e-02	
     17492.80000	      6.18162e-02	
     17530.60000	      5.82441e-02	
     17568.20000	      5.69069e-02	
     17605.90000	      5.28097e-02	
     17643.40000	      5.57527e-02	
     17680.90000	      5.14033e-02	
     17718.30000	      4.90620e-02	
     17755.70000	      4.71312e-02	
     17793.00000	      4.41606e-02	
     17830.20000	      4.50296e-02	
     17867.40000	      4.11697e-02	
     17904.50000	      4.32705e-02	
     17941.60000	      4.26265e-02	
     17978.60000	      3.94894e-02	
     18015.50000	      4.06800e-02	
     18052.40000	      3.95565e-02	
     18089.20000	      3.70264e-02	
     18126.00000	      4.11259e-02	
     18162.70000	      4.00853e-02	
     18199.30000	      4.42259e-02	
     18235.90000	      4.19216e-02	
     18272.40000	      4.39088e-02	
     18308.80000	      4.48621e-02	
     18345.20000	      3.46931e-02	
     18381.60000	      3.81437e-02	
     18417.90000	      3.79577e-02	
     18454.10000	      3.60886e-02	
     18490.30000	      3.93366e-02	
     18526.40000	      3.06343e-02	
     18562.40000	      3.43952e-02	
     18598.40000	      2.84760e-02	
     18634.40000	      3.14992e-02	
     18670.30000	      2.99898e-02	
     18706.10000	      3.08103e-02	
     18741.90000	      3.77670e-02	
     18777.60000	      3.52646e-02	
     18813.30000	      3.31984e-02	
     18848.90000	      3.79209e-02	
     18884.50000	      3.68501e-02	
     18920.00000	      3.99972e-02	
     18955.40000	      3.99964e-02	
     18990.80000	      3.82031e-02	
     19026.20000	      3.60452e-02	
     19061.50000	      3.80943e-02	
     19096.70000	      4.43736e-02	
     19131.90000	      3.95792e-02	
     19167.00000	      4.43751e-02	
     19202.10000	      4.29119e-02	
     19237.20000	      4.32182e-02	
     19272.20000	      4.04610e-02	
     19307.10000	      3.99791e-02	
     19342.00000	      3.79096e-02	
     19376.80000	      3.31350e-02	
     19411.60000	      3.41662e-02	
     19446.30000	      3.20198e-02	
     19481.00000	      3.30763e-02	
     19515.60000	      3.22873e-02	
     19550.20000	      3.05432e-02	
     19584.80000	      3.45497e-02	
     19619.20000	      3.29011e-02	
     19653.70000	      3.50394e-02	
     19688.10000	      3.52105e-02	
     19722.40000	      3.31471e-02	
     19756.70000	      3.50092e-02	
     19791.00000	      3.50794e-02	
     19825.20000	      3.45963e-02	
     19859.30000	      3.36411e-02	
     19893.40000	      3.58424e-02	
     19927.50000	      3.49930e-02	
     19961.50000	      3.69068e-02	
     19995.40000	      3.95814e-02	
     20029.40000	      3.49126e-02	
     20063.20000	      3.47480e-02	
     20097.00000	      4.12759e-02	
     20130.80000	      3.60318e-02	
     20164.60000	      3.99874e-02	
     20198.20000	      4.26314e-02	
     20231.90000	      3.98834e-02	
     20265.50000	      4.14936e-02	
     20299.00000	      4.11559e-02	
     20332.50000	      4.33582e-02	
     20366.00000	      4.42008e-02	
     20399.40000	      4.43623e-02	
     20432.70000	      4.66077e-02	
     20466.10000	      4.48037e-02	
     20499.30000	      4.71627e-02	
     20532.60000	      4.63697e-02	
     20565.80000	      4.69701e-02	
     20598.90000	      4.81696e-02	
     20632.00000	      4.77933e-02	
     20665.00000	      4.85536e-02	
     20698.00000	      4.78302e-02	
     20731.00000	      4.83829e-02	
     20763.90000	      4.94819e-02	
     20796.80000	      5.10109e-02	
     20829.60000	      4.99997e-02	
     20862.40000	      5.11816e-02	
     20895.10000	      5.19235e-02	
     20927.80000	      5.07987e-02	
     20960.40000	      5.11233e-02	
     20993.00000	      5.12895e-02	
     21025.60000	      5.08053e-02	
     21058.10000	      5.32005e-02	
     21090.50000	      5.22298e-02	
     21122.90000	      5.46943e-02	
     21155.30000	      5.26907e-02	
     21187.60000	      5.30004e-02	
     21219.90000	      5.21921e-02	
     21252.10000	      5.23198e-02	
     21284.30000	      5.25769e-02	
     21316.50000	      5.30379e-02	
     21348.60000	      5.24181e-02	
     21380.60000	      5.22838e-02	
     21412.60000	      5.25232e-02	
     21444.60000	      5.15655e-02	
     21476.50000	      5.21331e-02	
     21508.30000	      5.06578e-02	
     21540.10000	      5.14067e-02	
     21571.90000	      4.94202e-02	
     21603.60000	      5.18239e-02	
     21635.30000	      4.95187e-02	
     21666.90000	      5.12929e-02	
     21698.50000	      4.98439e-02	
     21730.00000	      4.95043e-02	
     21761.50000	      4.97478e-02	
     21792.90000	      4.88626e-02	
     21824.30000	      5.18816e-02	
     21855.70000	      5.03196e-02	
     21887.00000	      4.90169e-02	
     21918.20000	      5.04652e-02	
     21949.40000	      4.77819e-02	
     21980.50000	      4.88315e-02	
     22011.60000	      5.03445e-02	
     22042.70000	      4.93555e-02	
     22073.70000	      4.92923e-02	
     22104.60000	      4.76814e-02	
     22135.50000	      4.87738e-02	
     22166.30000	      4.92138e-02	
     22197.10000	      4.76163e-02	
     22227.90000	      4.60690e-02	
     22258.60000	      4.64283e-02	
     22289.20000	      4.47116e-02	
     22319.80000	      4.27180e-02	
     22350.40000	      4.55144e-02	
     22380.90000	      4.58653e-02	
     22411.30000	      4.53124e-02	
     22441.70000	      4.40376e-02	
     22472.00000	      4.51981e-02	
     22502.30000	      4.40235e-02	
     22532.50000	      4.44145e-02	
     22562.70000	      4.46599e-02	
     22592.90000	      4.43762e-02	
     22622.90000	      4.37864e-02	
     22653.00000	      4.44200e-02	
     22682.90000	      4.38782e-02	
     22712.90000	      4.29792e-02	
     22742.70000	      4.13019e-02	
     22772.60000	      4.43574e-02	
     22802.30000	      4.27936e-02	
     22832.10000	      4.22634e-02	
     22861.70000	      4.23283e-02	
     22891.30000	      4.20538e-02	
     22920.90000	      4.05672e-02	
     22950.40000	      3.74427e-02	
     22979.90000	      3.59882e-02	
     23009.30000	      3.14420e-02	
     23038.60000	      3.36071e-02	
     23067.90000	      3.42913e-02	
     23097.20000	      3.43571e-02	
     23126.40000	      3.32504e-02	
     23155.50000	      3.44203e-02	
     23184.60000	      3.36926e-02	
     23213.70000	      3.33615e-02	
     23242.70000	      3.18195e-02	
     23271.60000	      3.12268e-02	
     23300.50000	      3.36145e-02	
     23329.40000	      3.20577e-02	
     23358.20000	      3.20253e-02	
     23386.90000	      3.26223e-02	
     23415.60000	      3.30065e-02	
     23444.30000	      3.22167e-02	
     23472.90000	      3.36786e-02	
     23501.40000	      3.20168e-02	
     23529.90000	      3.30465e-02	
     23558.40000	      3.39538e-02	
     23586.80000	      3.48370e-02	
     23615.20000	      3.30582e-02	
     23643.50000	      3.18872e-02	
     23671.80000	      3.11659e-02	
     23700.00000	      3.14401e-02	
     23728.20000	      3.02991e-02	
     23756.40000	      3.03133e-02	
     23784.50000	      3.38605e-02	
     23812.60000	      3.17827e-02	
     23840.60000	      3.15245e-02	
     23868.60000	      3.03353e-02	
     23896.50000	      3.17037e-02	
     23924.50000	      3.20587e-02	
     23952.30000	      3.21428e-02	
     23980.20000	      3.40414e-02	
     24008.00000	      3.30837e-02	
     24035.80000	      3.18176e-02	
     24063.50000	      3.05577e-02	
     24091.20000	      3.09599e-02	
     24118.90000	      3.05821e-02	
     24146.60000	      3.04838e-02	
     24174.20000	      3.25502e-02	
     24201.80000	      2.84051e-02	
     24229.40000	      3.00984e-02	
     24257.00000	      3.05913e-02	
     24284.50000	      2.79907e-02	
     24312.00000	      3.01280e-02	
     24339.50000	      2.85247e-02	
     24367.00000	      3.04006e-02	
     24394.50000	      3.14032e-02	
     24422.00000	      3.06981e-02	
     24449.40000	      2.71203e-02	
     24476.90000	      2.66665e-02	
     24504.30000	      2.55596e-02	
     24531.80000	      2.35271e-02	
     24559.20000	      2.48534e-02	
     24586.60000	      2.32800e-02	
     24614.10000	      2.76721e-02	
     24641.50000	      2.25279e-02	
     24669.00000	      2.36984e-02	
     24696.40000	      2.28582e-02	
     24723.90000	      1.93085e-02	
     24751.40000	      2.25423e-02	
     24778.90000	      2.33011e-02	
     24806.40000	      2.72901e-02	
     24834.00000	      2.91009e-02	
     24861.60000	      1.98652e-02	
     24889.20000	      1.61780e-02	
     24916.90000	      2.14548e-02	
     24944.50000	      1.22584e-02	
     24972.30000	      2.40975e-02	
     25000.00000	      2.01851e-02	
     25027.90000	      1.96937e-02	
     25055.70000	      2.55915e-02	
     25083.70000	      2.00016e-02	
     25111.60000	      2.30280e-02	
     25139.70000	      2.54632e-02	
     25167.80000	      2.17500e-02	
     25196.00000	      2.56281e-02	
     25224.20000	      2.44184e-02	
     25252.60000	      1.27168e-02	
     25281.00000	      1.48339e-02	
     25309.50000	      1.91125e-02	
     25338.10000	      3.44801e-02	
     25366.80000	     -9.02155e-03	
     25395.60000	      1.43209e-02	
     25424.50000	     -6.11900e-04	
     25453.60000	     -6.85175e-03	
     25482.70000	      5.56054e-02	
     25512.00000	      9.15747e-02	
     25541.40000	     -1.53580e-02	
     25570.90000	      1.85949e-03	
     25600.60000	      3.54627e-02	
     25630.40000	      3.66569e-02	
#time:0.015837
