# The SpeX Prism Spectral Libraries
# spty = Opt:L6  (Spectral type)
#
#     WAVELENGTH	#            FLUX	
#     (ANGSTROM)	#   (ERG/CM2/S/A)	
################	#################	
      6568.84000	      1.03115e-02	
      6590.73000	      1.11449e-02	
      6612.53000	      2.11325e-02	
      6634.26000	      1.05109e-02	
      6655.93000	      1.18638e-02	
      6677.54000	      8.01433e-03	
      6699.11000	      3.20562e-02	
      6720.64000	      4.54793e-03	
      6742.14000	      1.72672e-02	
      6763.62000	     -6.03440e-03	
      6785.09000	      4.59885e-03	
      6806.56000	      1.48873e-02	
      6828.03000	      1.12965e-02	
      6849.52000	      7.72730e-03	
      6871.02000	      1.07140e-02	
      6892.54000	      2.03722e-02	
      6914.10000	      7.86849e-03	
      6935.70000	      1.02809e-03	
      6957.35000	     -2.95219e-04	
      6979.05000	      1.10627e-02	
      7000.80000	     -2.30044e-03	
      7022.62000	      9.39343e-04	
      7044.51000	      6.14734e-03	
      7066.48000	     -6.47133e-03	
      7088.53000	     -1.08143e-04	
      7110.66000	      7.14516e-03	
      7132.89000	      9.11065e-03	
      7155.22000	      2.13987e-03	
      7177.64000	      6.98772e-03	
      7200.18000	     -7.57367e-03	
      7222.82000	      9.74699e-03	
      7245.59000	     -6.00158e-03	
      7268.47000	      3.75555e-03	
      7291.48000	      6.42844e-04	
      7314.61000	      5.24939e-03	
      7337.88000	      1.43246e-02	
      7361.29000	      1.12371e-04	
      7384.83000	     -2.80731e-03	
      7408.52000	      8.03026e-03	
      7432.36000	      1.13786e-03	
      7456.35000	     -2.07358e-04	
      7480.49000	      2.42740e-03	
      7504.78000	      9.41081e-03	
      7529.24000	     -1.65228e-04	
      7553.85000	      1.28305e-03	
      7578.63000	      2.82117e-03	
      7603.58000	      1.44194e-03	
      7628.70000	     -3.29982e-03	
      7653.99000	      2.97645e-04	
      7679.45000	      4.01829e-03	
      7705.09000	     -4.68136e-03	
      7730.91000	      1.83887e-03	
      7756.91000	      2.58583e-03	
      7783.09000	      4.19862e-04	
      7809.45000	      5.82616e-03	
      7835.99000	     -3.48511e-04	
      7862.73000	      7.49866e-04	
      7889.65000	      1.86806e-03	
      7916.75000	      2.92839e-03	
      7944.05000	      1.75737e-03	
      7971.54000	      8.78020e-03	
      7999.22000	      3.64806e-03	
      8027.10000	      7.41134e-03	
      8055.16000	      1.04119e-02	
      8083.43000	      5.62884e-03	
      8111.88000	      1.02549e-02	
      8140.54000	      1.17514e-02	
      8169.38000	      8.96334e-03	
      8198.43000	      1.17680e-02	
      8227.67000	      1.45076e-02	
      8257.11000	      1.09052e-02	
      8286.74000	      8.82176e-03	
      8316.58000	      1.40702e-02	
      8346.60000	      1.58864e-02	
      8376.83000	      1.49158e-02	
      8407.25000	      1.58304e-02	
      8437.87000	      1.94514e-02	
      8468.69000	      1.80131e-02	
      8499.70000	      1.88894e-02	
      8530.91000	      1.56526e-02	
      8562.32000	      1.55116e-02	
      8593.92000	      1.86395e-02	
      8625.71000	      1.68668e-02	
      8657.70000	      1.82644e-02	
      8689.88000	      1.47106e-02	
      8722.25000	      1.32389e-02	
      8754.82000	      1.40359e-02	
      8787.57000	      1.62082e-02	
      8820.51000	      1.68115e-02	
      8853.65000	      1.81567e-02	
      8886.97000	      1.78612e-02	
      8920.48000	      1.77247e-02	
      8954.17000	      1.97512e-02	
      8988.05000	      1.87789e-02	
      9022.11000	      1.95560e-02	
      9056.36000	      2.45022e-02	
      9090.78000	      2.33928e-02	
      9125.39000	      2.94824e-02	
      9160.17000	      2.63547e-02	
      9195.13000	      2.35078e-02	
      9230.27000	      2.93786e-02	
      9265.58000	      3.09417e-02	
      9301.06000	      3.04746e-02	
      9336.72000	      3.43326e-02	
      9372.54000	      2.94722e-02	
      9408.54000	      3.02039e-02	
      9444.69000	      3.28075e-02	
      9481.02000	      3.05284e-02	
      9517.51000	      3.79520e-02	
      9554.15000	      3.55194e-02	
      9590.96000	      3.78362e-02	
      9627.93000	      3.89066e-02	
      9665.05000	      3.64960e-02	
      9702.33000	      3.84092e-02	
      9739.76000	      3.96203e-02	
      9777.34000	      3.79487e-02	
      9815.07000	      4.01479e-02	
      9852.95000	      4.29607e-02	
      9890.98000	      3.95800e-02	
      9929.14000	      4.15204e-02	
      9967.45000	      4.11951e-02	
     10005.90000	      3.78828e-02	
     10044.50000	      3.79121e-02	
     10083.20000	      3.77412e-02	
     10122.10000	      3.56169e-02	
     10161.00000	      3.90713e-02	
     10200.20000	      4.35219e-02	
     10239.40000	      4.37463e-02	
     10278.80000	      4.32001e-02	
     10318.30000	      4.59603e-02	
     10357.90000	      4.52738e-02	
     10397.60000	      4.45859e-02	
     10437.50000	      4.79463e-02	
     10477.40000	      5.39754e-02	
     10517.50000	      5.16898e-02	
     10557.70000	      5.24901e-02	
     10598.00000	      5.63129e-02	
     10638.40000	      5.49455e-02	
     10678.90000	      5.53528e-02	
     10719.60000	      5.72196e-02	
     10760.30000	      5.77378e-02	
     10801.10000	      5.89800e-02	
     10842.00000	      6.01753e-02	
     10883.00000	      6.40526e-02	
     10924.10000	      6.15191e-02	
     10965.30000	      6.08727e-02	
     11006.60000	      6.08418e-02	
     11047.90000	      5.80934e-02	
     11089.40000	      5.99605e-02	
     11130.90000	      5.86894e-02	
     11172.50000	      5.92889e-02	
     11214.20000	      6.05087e-02	
     11256.00000	      5.68079e-02	
     11297.80000	      6.22149e-02	
     11339.70000	      5.83100e-02	
     11381.70000	      5.94783e-02	
     11423.70000	      5.95069e-02	
     11465.80000	      5.88794e-02	
     11508.00000	      6.20918e-02	
     11550.20000	      6.26240e-02	
     11592.50000	      6.37151e-02	
     11634.90000	      6.61735e-02	
     11677.30000	      6.28136e-02	
     11719.70000	      6.31306e-02	
     11762.20000	      6.24139e-02	
     11804.80000	      6.28488e-02	
     11847.40000	      6.35635e-02	
     11890.10000	      6.49938e-02	
     11932.70000	      6.95669e-02	
     11975.50000	      7.10151e-02	
     12018.30000	      6.92611e-02	
     12061.10000	      6.68037e-02	
     12103.90000	      6.90148e-02	
     12146.80000	      6.90262e-02	
     12189.70000	      7.34572e-02	
     12232.60000	      7.55700e-02	
     12275.60000	      7.91795e-02	
     12318.60000	      7.95396e-02	
     12361.60000	      8.16976e-02	
     12404.70000	      8.25910e-02	
     12447.70000	      8.04203e-02	
     12490.80000	      7.93289e-02	
     12533.90000	      8.24675e-02	
     12577.00000	      8.06450e-02	
     12620.20000	      8.03175e-02	
     12663.30000	      8.39486e-02	
     12706.50000	      8.88807e-02	
     12749.60000	      9.09647e-02	
     12792.80000	      8.87960e-02	
     12836.00000	      9.01073e-02	
     12879.10000	      9.08525e-02	
     12922.30000	      9.16702e-02	
     12965.50000	      9.13018e-02	
     13008.70000	      9.06746e-02	
     13051.90000	      9.33667e-02	
     13095.00000	      9.33845e-02	
     13138.20000	      8.99557e-02	
     13181.40000	      9.14014e-02	
     13224.50000	      8.99979e-02	
     13267.70000	      8.68525e-02	
     13310.80000	      8.23497e-02	
     13353.90000	      7.83865e-02	
     13397.00000	      6.99471e-02	
     13440.10000	      5.84733e-02	
     13483.20000	      5.17747e-02	
     13526.20000	      5.30844e-02	
     13569.30000	      4.88159e-02	
     13612.30000	      4.72919e-02	
     13655.30000	      3.98948e-02	
     13698.20000	      4.02592e-02	
     13741.20000	      3.85113e-02	
     13784.10000	      4.78563e-02	
     13827.00000	      5.15817e-02	
     13869.90000	      5.69394e-02	
     13912.70000	      5.07778e-02	
     13955.50000	      4.86624e-02	
     13998.30000	      6.00402e-02	
     14041.00000	      5.76765e-02	
     14083.70000	      4.48587e-02	
     14126.40000	      4.92557e-02	
     14169.00000	      4.73186e-02	
     14211.60000	      4.41316e-02	
     14254.10000	      4.55717e-02	
     14296.70000	      4.75207e-02	
     14339.10000	      4.58049e-02	
     14381.60000	      4.85461e-02	
     14424.00000	      4.98474e-02	
     14466.30000	      4.77203e-02	
     14508.60000	      4.98028e-02	
     14550.90000	      5.10095e-02	
     14593.10000	      5.25384e-02	
     14635.30000	      5.25092e-02	
     14677.40000	      5.51027e-02	
     14719.50000	      5.45436e-02	
     14761.50000	      5.64670e-02	
     14803.50000	      5.50537e-02	
     14845.40000	      5.63568e-02	
     14887.30000	      6.06513e-02	
     14929.10000	      6.31138e-02	
     14970.90000	      6.43538e-02	
     15012.60000	      6.38052e-02	
     15054.30000	      6.29143e-02	
     15095.90000	      6.66627e-02	
     15137.40000	      6.74319e-02	
     15178.90000	      6.99983e-02	
     15220.40000	      7.01671e-02	
     15261.80000	      7.21446e-02	
     15303.10000	      7.16815e-02	
     15344.40000	      7.53262e-02	
     15385.60000	      7.79141e-02	
     15426.70000	      7.50932e-02	
     15467.80000	      7.84331e-02	
     15508.90000	      7.78545e-02	
     15549.90000	      8.30244e-02	
     15590.80000	      8.38003e-02	
     15631.60000	      8.45772e-02	
     15672.40000	      8.30398e-02	
     15713.20000	      8.82815e-02	
     15753.80000	      8.89552e-02	
     15794.50000	      8.54382e-02	
     15835.00000	      9.00276e-02	
     15875.50000	      8.90534e-02	
     15915.90000	      8.75957e-02	
     15956.30000	      8.70926e-02	
     15996.60000	      9.02392e-02	
     16036.80000	      9.16737e-02	
     16077.00000	      9.27246e-02	
     16117.10000	      9.18334e-02	
     16157.10000	      9.60908e-02	
     16197.10000	      9.39097e-02	
     16237.00000	      9.36629e-02	
     16276.80000	      9.67418e-02	
     16316.60000	      9.71680e-02	
     16356.30000	      9.66153e-02	
     16396.00000	      9.69465e-02	
     16435.60000	      9.94678e-02	
     16475.10000	      9.52398e-02	
     16514.60000	      9.78738e-02	
     16553.90000	      9.81437e-02	
     16593.30000	      1.00139e-01	
     16632.50000	      1.00775e-01	
     16671.70000	      1.00884e-01	
     16710.80000	      1.01331e-01	
     16749.90000	      9.16276e-02	
     16788.90000	      9.96768e-02	
     16827.80000	      9.80262e-02	
     16866.70000	      1.03423e-01	
     16905.50000	      1.02565e-01	
     16944.20000	      1.01860e-01	
     16982.90000	      9.95313e-02	
     17021.50000	      1.00301e-01	
     17060.00000	      9.78200e-02	
     17098.50000	      9.75230e-02	
     17136.90000	      9.55296e-02	
     17175.20000	      9.29231e-02	
     17213.50000	      9.51919e-02	
     17251.70000	      9.09400e-02	
     17289.90000	      8.70342e-02	
     17328.00000	      8.64662e-02	
     17366.00000	      8.64232e-02	
     17403.90000	      8.42982e-02	
     17441.80000	      8.66048e-02	
     17479.60000	      8.12625e-02	
     17517.40000	      7.97047e-02	
     17555.10000	      7.74217e-02	
     17592.70000	      7.88852e-02	
     17630.30000	      7.38915e-02	
     17667.80000	      7.25509e-02	
     17705.30000	      6.92317e-02	
     17742.70000	      6.52034e-02	
     17780.00000	      6.79042e-02	
     17817.20000	      6.73450e-02	
     17854.40000	      6.37121e-02	
     17891.60000	      6.40203e-02	
     17928.70000	      6.16911e-02	
     17965.70000	      5.60081e-02	
     18002.60000	      5.99023e-02	
     18039.50000	      6.08524e-02	
     18076.40000	      5.91408e-02	
     18113.10000	      5.49523e-02	
     18149.90000	      5.65232e-02	
     18186.50000	      5.86659e-02	
     18223.10000	      5.86577e-02	
     18259.60000	      5.68585e-02	
     18296.10000	      5.42683e-02	
     18332.50000	      6.39967e-02	
     18368.90000	      5.68073e-02	
     18405.20000	      5.83640e-02	
     18441.50000	      5.62230e-02	
     18477.70000	      4.01646e-02	
     18513.80000	      5.57712e-02	
     18549.90000	      6.31373e-02	
     18585.90000	      4.91024e-02	
     18621.80000	      5.08432e-02	
     18657.80000	      4.85414e-02	
     18693.60000	      4.92501e-02	
     18729.40000	      6.05912e-02	
     18765.20000	      5.12527e-02	
     18800.80000	      4.43794e-02	
     18836.50000	      4.53922e-02	
     18872.10000	      5.68760e-02	
     18907.60000	      5.96103e-02	
     18943.10000	      5.45418e-02	
     18978.50000	      5.59693e-02	
     19013.80000	      5.17559e-02	
     19049.20000	      6.41628e-02	
     19084.40000	      5.36161e-02	
     19119.60000	      5.09237e-02	
     19154.80000	      6.29501e-02	
     19189.90000	      6.76703e-02	
     19224.90000	      5.79150e-02	
     19259.90000	      6.16582e-02	
     19294.90000	      6.09299e-02	
     19329.80000	      6.47713e-02	
     19364.70000	      5.53979e-02	
     19399.50000	      5.82013e-02	
     19434.20000	      5.91984e-02	
     19468.90000	      5.14982e-02	
     19503.60000	      5.39648e-02	
     19538.20000	      5.78774e-02	
     19572.70000	      5.47616e-02	
     19607.20000	      5.68500e-02	
     19641.70000	      4.77632e-02	
     19676.10000	      5.07904e-02	
     19710.40000	      5.28657e-02	
     19744.70000	      5.48782e-02	
     19779.00000	      5.36977e-02	
     19813.20000	      5.43124e-02	
     19847.40000	      5.17017e-02	
     19881.50000	      5.57421e-02	
     19915.60000	      5.38071e-02	
     19949.60000	      5.23879e-02	
     19983.60000	      5.18255e-02	
     20017.50000	      6.09785e-02	
     20051.40000	      5.93458e-02	
     20085.20000	      5.39475e-02	
     20119.00000	      5.12184e-02	
     20152.80000	      5.49451e-02	
     20186.50000	      5.80040e-02	
     20220.10000	      5.62830e-02	
     20253.80000	      5.66816e-02	
     20287.30000	      6.02942e-02	
     20320.80000	      6.12655e-02	
     20354.30000	      6.21235e-02	
     20387.70000	      5.84619e-02	
     20421.10000	      6.30616e-02	
     20454.40000	      5.89683e-02	
     20487.70000	      6.18668e-02	
     20521.00000	      6.43298e-02	
     20554.20000	      6.62387e-02	
     20587.30000	      6.39030e-02	
     20620.40000	      6.30324e-02	
     20653.50000	      6.76565e-02	
     20686.50000	      6.93694e-02	
     20719.50000	      7.07838e-02	
     20752.40000	      6.58519e-02	
     20785.30000	      6.88483e-02	
     20818.10000	      6.87371e-02	
     20850.90000	      6.85822e-02	
     20883.70000	      7.25346e-02	
     20916.40000	      7.23962e-02	
     20949.00000	      7.18972e-02	
     20981.70000	      7.03624e-02	
     21014.20000	      7.11452e-02	
     21046.70000	      7.16853e-02	
     21079.20000	      7.08051e-02	
     21111.60000	      7.07661e-02	
     21144.00000	      7.62078e-02	
     21176.40000	      7.18113e-02	
     21208.70000	      7.44402e-02	
     21240.90000	      7.30417e-02	
     21273.10000	      7.36614e-02	
     21305.30000	      7.24097e-02	
     21337.40000	      7.45131e-02	
     21369.40000	      7.26443e-02	
     21401.40000	      7.43871e-02	
     21433.40000	      7.61517e-02	
     21465.30000	      7.68289e-02	
     21497.20000	      7.60156e-02	
     21529.00000	      7.44938e-02	
     21560.80000	      7.29006e-02	
     21592.60000	      7.52014e-02	
     21624.30000	      7.51113e-02	
     21655.90000	      7.59477e-02	
     21687.50000	      7.45962e-02	
     21719.00000	      7.37772e-02	
     21750.50000	      7.47980e-02	
     21782.00000	      7.40970e-02	
     21813.40000	      7.55439e-02	
     21844.70000	      7.30077e-02	
     21876.00000	      7.22077e-02	
     21907.30000	      7.41707e-02	
     21938.50000	      7.10520e-02	
     21969.70000	      7.15872e-02	
     22000.80000	      7.29052e-02	
     22031.80000	      7.38693e-02	
     22062.80000	      7.26999e-02	
     22093.80000	      7.19433e-02	
     22124.70000	      7.30297e-02	
     22155.60000	      7.34992e-02	
     22186.40000	      7.46819e-02	
     22217.20000	      7.30233e-02	
     22247.90000	      7.12227e-02	
     22278.50000	      7.16389e-02	
     22309.10000	      7.25042e-02	
     22339.70000	      6.87402e-02	
     22370.20000	      6.92410e-02	
     22400.70000	      7.01319e-02	
     22431.10000	      7.06321e-02	
     22461.40000	      6.90704e-02	
     22491.70000	      7.18079e-02	
     22522.00000	      7.06716e-02	
     22552.20000	      6.93760e-02	
     22582.30000	      6.93814e-02	
     22612.50000	      6.80689e-02	
     22642.50000	      6.95478e-02	
     22672.50000	      6.82559e-02	
     22702.40000	      6.89157e-02	
     22732.30000	      6.82187e-02	
     22762.20000	      6.91558e-02	
     22792.00000	      6.71351e-02	
     22821.70000	      6.86819e-02	
     22851.40000	      6.87184e-02	
     22881.00000	      6.55351e-02	
     22910.60000	      6.58153e-02	
     22940.10000	      6.44328e-02	
     22969.60000	      6.20738e-02	
     22999.00000	      5.79505e-02	
     23028.40000	      5.29525e-02	
     23057.70000	      5.45812e-02	
     23087.00000	      5.34914e-02	
     23116.20000	      5.31146e-02	
     23145.40000	      5.52923e-02	
     23174.50000	      5.34011e-02	
     23203.60000	      5.79268e-02	
     23232.60000	      5.65956e-02	
     23261.50000	      5.59411e-02	
     23290.40000	      5.44363e-02	
     23319.30000	      5.29643e-02	
     23348.10000	      5.59100e-02	
     23376.90000	      5.37607e-02	
     23405.60000	      5.26134e-02	
     23434.30000	      5.43433e-02	
     23462.90000	      5.50947e-02	
     23491.50000	      5.44578e-02	
     23520.00000	      5.49667e-02	
     23548.50000	      5.41467e-02	
     23576.90000	      5.36579e-02	
     23605.30000	      5.40765e-02	
     23633.60000	      5.22958e-02	
     23661.90000	      4.59252e-02	
     23690.20000	      4.91929e-02	
     23718.40000	      5.00473e-02	
     23746.60000	      5.11032e-02	
     23774.70000	      4.96529e-02	
     23802.80000	      4.87567e-02	
     23830.80000	      5.35147e-02	
     23858.80000	      5.06991e-02	
     23886.80000	      4.87617e-02	
     23914.70000	      4.91226e-02	
     23942.60000	      5.12894e-02	
     23970.50000	      5.28117e-02	
     23998.30000	      4.99207e-02	
     24026.10000	      5.00985e-02	
     24053.80000	      5.16676e-02	
     24081.60000	      5.09720e-02	
     24109.30000	      4.88292e-02	
     24136.90000	      5.07388e-02	
     24164.60000	      4.78195e-02	
     24192.20000	      5.22801e-02	
     24219.80000	      4.97692e-02	
     24247.40000	      4.69677e-02	
     24274.90000	      4.79739e-02	
     24302.40000	      4.55922e-02	
     24329.90000	      4.83186e-02	
     24357.40000	      4.82329e-02	
     24384.90000	      4.65078e-02	
     24412.40000	      4.40236e-02	
     24439.80000	      4.73615e-02	
     24467.30000	      4.65710e-02	
     24494.70000	      4.57291e-02	
     24522.20000	      4.72938e-02	
     24549.60000	      4.48296e-02	
     24577.10000	      4.23631e-02	
     24604.50000	      4.38206e-02	
     24631.90000	      4.81083e-02	
     24659.40000	      4.23880e-02	
     24686.80000	      4.40012e-02	
     24714.30000	      4.25818e-02	
     24741.80000	      3.92037e-02	
     24769.30000	      4.24278e-02	
     24796.80000	      3.67790e-02	
     24824.40000	      4.06175e-02	
     24852.00000	      5.10554e-02	
     24879.60000	      3.60047e-02	
     24907.20000	      4.40910e-02	
     24934.90000	      4.59079e-02	
     24962.60000	      3.45340e-02	
     24990.30000	      3.74520e-02	
     25018.10000	      3.79702e-02	
     25046.00000	      4.15376e-02	
     25073.90000	      3.93671e-02	
     25101.90000	      4.09522e-02	
     25129.90000	      2.68679e-02	
     25158.00000	      4.48040e-02	
     25186.10000	      1.77252e-02	
     25214.40000	      3.83386e-02	
     25242.70000	      3.73572e-02	
     25271.10000	      4.61601e-02	
     25299.60000	      2.63365e-02	
     25328.10000	      5.17252e-02	
     25356.80000	      3.28284e-02	
     25385.60000	      2.54696e-02	
     25414.40000	      1.29537e-02	
     25443.40000	      4.50154e-02	
     25472.50000	      5.72218e-02	
     25501.70000	      2.26916e-02	
     25531.10000	      7.49268e-03	
     25560.60000	      3.97724e-02	
     25590.20000	      1.11442e-02	
     25620.00000	      3.52217e-02	
     25649.90000	     -6.96642e-03	
#time:0.015762
