# The SpeX Prism Spectral Libraries
# spty = Opt:L2,NIR:L3  (Spectral type)
#
#     WAVELENGTH	#            FLUX	
#     (ANGSTROM)	#   (ERG/CM2/S/A)	
################	#################	
      6499.10000	     -4.15855e-03	
      6521.30000	      2.84701e-04	
      6543.40000	      1.90416e-02	
      6565.39000	     -1.97143e-03	
      6587.28000	     -2.91059e-03	
      6609.10000	      1.24803e-03	
      6630.84000	      1.13160e-02	
      6652.51000	      2.58659e-03	
      6674.13000	      9.82229e-03	
      6695.71000	     -1.80686e-02	
      6717.24000	      6.60930e-03	
      6738.75000	     -6.08903e-04	
      6760.24000	      6.32696e-03	
      6781.71000	      3.39484e-03	
      6803.18000	     -9.93219e-03	
      6824.65000	      9.33219e-04	
      6846.13000	      6.65464e-03	
      6867.63000	     -1.43936e-03	
      6889.15000	     -1.89925e-03	
      6910.70000	      3.77021e-03	
      6932.29000	      1.09161e-02	
      6953.93000	      5.78290e-03	
      6975.62000	      3.92385e-03	
      6997.37000	      1.38110e-05	
      7019.18000	      5.59604e-03	
      7041.06000	      1.22081e-02	
      7063.01000	      7.82772e-03	
      7085.04000	      1.03264e-02	
      7107.17000	      1.03283e-02	
      7129.38000	      1.10965e-02	
      7151.69000	      5.66920e-03	
      7174.10000	      8.31829e-03	
      7196.62000	      1.13081e-02	
      7219.25000	      5.29331e-03	
      7241.99000	      9.02198e-03	
      7264.85000	      1.55016e-02	
      7287.84000	      4.52350e-03	
      7310.96000	      1.00256e-04	
      7334.21000	      9.54338e-03	
      7357.59000	      7.90872e-03	
      7381.11000	      5.41988e-03	
      7404.78000	      9.37888e-03	
      7428.59000	      7.17314e-03	
      7452.55000	      7.65962e-03	
      7476.67000	      6.80402e-03	
      7500.94000	      9.50469e-03	
      7525.37000	      3.77885e-03	
      7549.96000	      7.10846e-03	
      7574.72000	      5.02448e-03	
      7599.64000	      6.94849e-03	
      7624.73000	      6.18328e-03	
      7649.99000	      4.67057e-03	
      7675.43000	     -1.86740e-04	
      7701.04000	      4.04650e-03	
      7726.83000	      2.98024e-03	
      7752.80000	      6.86487e-03	
      7778.95000	      7.45725e-03	
      7805.28000	      5.93132e-03	
      7831.80000	      1.03469e-02	
      7858.50000	      7.57409e-03	
      7885.39000	      9.62093e-03	
      7912.47000	      8.95100e-03	
      7939.74000	      7.73825e-03	
      7967.20000	      1.09398e-02	
      7994.85000	      1.39180e-02	
      8022.69000	      1.18142e-02	
      8050.73000	      1.57012e-02	
      8078.96000	      1.64167e-02	
      8107.38000	      1.64031e-02	
      8136.01000	      1.80712e-02	
      8164.82000	      1.80577e-02	
      8193.84000	      1.65655e-02	
      8223.05000	      1.94840e-02	
      8252.45000	      2.32163e-02	
      8282.06000	      1.96711e-02	
      8311.86000	      2.07475e-02	
      8341.86000	      2.02953e-02	
      8372.05000	      2.16810e-02	
      8402.45000	      2.36205e-02	
      8433.03000	      2.14763e-02	
      8463.82000	      1.91348e-02	
      8494.80000	      2.26247e-02	
      8525.98000	      2.12932e-02	
      8557.35000	      2.15286e-02	
      8588.92000	      2.10574e-02	
      8620.69000	      1.83168e-02	
      8652.64000	      1.92046e-02	
      8684.79000	      1.72465e-02	
      8717.13000	      1.70493e-02	
      8749.67000	      1.55237e-02	
      8782.39000	      1.95461e-02	
      8815.31000	      2.10421e-02	
      8848.41000	      1.99958e-02	
      8881.70000	      2.28525e-02	
      8915.18000	      2.40121e-02	
      8948.85000	      2.42981e-02	
      8982.70000	      2.44636e-02	
      9016.73000	      2.68463e-02	
      9050.95000	      2.91183e-02	
      9085.34000	      3.12985e-02	
      9119.92000	      3.37681e-02	
      9154.68000	      3.46741e-02	
      9189.61000	      3.71387e-02	
      9224.72000	      3.86233e-02	
      9260.00000	      3.79558e-02	
      9295.46000	      3.82785e-02	
      9331.09000	      3.86105e-02	
      9366.88000	      3.86032e-02	
      9402.85000	      4.23056e-02	
      9438.98000	      4.44297e-02	
      9475.28000	      4.75984e-02	
      9511.74000	      4.79889e-02	
      9548.37000	      4.69940e-02	
      9585.15000	      4.80161e-02	
      9622.09000	      4.74737e-02	
      9659.19000	      4.78348e-02	
      9696.44000	      4.98295e-02	
      9733.85000	      5.20209e-02	
      9771.41000	      5.34148e-02	
      9809.12000	      5.56012e-02	
      9846.97000	      5.28464e-02	
      9884.97000	      4.79766e-02	
      9923.12000	      4.21010e-02	
      9961.40000	      3.87752e-02	
      9999.83000	      3.89398e-02	
     10038.40000	      4.18235e-02	
     10077.10000	      4.67410e-02	
     10115.90000	      4.95980e-02	
     10154.90000	      5.13804e-02	
     10194.00000	      4.80990e-02	
     10233.20000	      4.97085e-02	
     10272.60000	      4.96271e-02	
     10312.00000	      5.28999e-02	
     10351.60000	      5.56411e-02	
     10391.30000	      5.59765e-02	
     10431.20000	      5.97856e-02	
     10471.10000	      5.96077e-02	
     10511.20000	      5.85944e-02	
     10551.40000	      5.75831e-02	
     10591.70000	      5.83370e-02	
     10632.00000	      5.92839e-02	
     10672.50000	      6.19712e-02	
     10713.10000	      6.52846e-02	
     10753.80000	      6.81326e-02	
     10794.60000	      7.21081e-02	
     10835.50000	      7.49009e-02	
     10876.50000	      7.88253e-02	
     10917.60000	      8.07123e-02	
     10958.80000	      8.15364e-02	
     11000.10000	      8.19745e-02	
     11041.40000	      7.94994e-02	
     11082.80000	      7.78322e-02	
     11124.30000	      7.86623e-02	
     11165.90000	      7.74490e-02	
     11207.60000	      8.14485e-02	
     11249.40000	      8.14620e-02	
     11291.20000	      7.99472e-02	
     11333.10000	      7.62320e-02	
     11375.10000	      7.48995e-02	
     11417.10000	      7.55836e-02	
     11459.20000	      7.84150e-02	
     11501.30000	      8.40085e-02	
     11543.60000	      8.42253e-02	
     11585.90000	      8.41561e-02	
     11628.20000	      8.26620e-02	
     11670.60000	      8.03904e-02	
     11713.00000	      7.71411e-02	
     11755.50000	      7.62734e-02	
     11798.10000	      7.68808e-02	
     11840.70000	      7.81259e-02	
     11883.30000	      8.05874e-02	
     11926.00000	      7.65130e-02	
     11968.70000	      7.31085e-02	
     12011.50000	      7.25944e-02	
     12054.30000	      7.39494e-02	
     12097.20000	      7.79028e-02	
     12140.00000	      8.18296e-02	
     12182.90000	      8.37041e-02	
     12225.90000	      8.76035e-02	
     12268.80000	      8.97653e-02	
     12311.80000	      8.98463e-02	
     12354.80000	      8.52371e-02	
     12397.90000	      8.19250e-02	
     12441.00000	      7.96853e-02	
     12484.00000	      8.15046e-02	
     12527.10000	      8.52920e-02	
     12570.20000	      8.88865e-02	
     12613.40000	      9.43032e-02	
     12656.50000	      9.59331e-02	
     12699.70000	      9.91257e-02	
     12742.80000	      1.01962e-01	
     12786.00000	      1.01348e-01	
     12829.20000	      9.89195e-02	
     12872.30000	      1.00172e-01	
     12915.50000	      9.96689e-02	
     12958.70000	      9.88981e-02	
     13001.90000	      9.95238e-02	
     13045.10000	      9.89493e-02	
     13088.20000	      9.90226e-02	
     13131.40000	      1.00609e-01	
     13174.60000	      1.00927e-01	
     13217.70000	      1.00286e-01	
     13260.90000	      9.62120e-02	
     13304.00000	      8.59721e-02	
     13347.10000	      7.52076e-02	
     13390.20000	      6.52204e-02	
     13433.30000	      6.23397e-02	
     13476.40000	      6.00246e-02	
     13519.50000	      5.83987e-02	
     13562.50000	      5.75015e-02	
     13605.50000	      5.57410e-02	
     13648.50000	      5.30902e-02	
     13691.50000	      5.33411e-02	
     13734.40000	      5.48148e-02	
     13777.30000	      5.49291e-02	
     13820.20000	      5.64126e-02	
     13863.10000	      5.73531e-02	
     13905.90000	      5.68534e-02	
     13948.70000	      5.40380e-02	
     13991.50000	      5.29038e-02	
     14034.30000	      5.07874e-02	
     14077.00000	      5.17592e-02	
     14119.60000	      4.88692e-02	
     14162.30000	      5.03909e-02	
     14204.90000	      5.01508e-02	
     14247.40000	      5.00333e-02	
     14290.00000	      4.90634e-02	
     14332.40000	      4.87456e-02	
     14374.90000	      4.89905e-02	
     14417.30000	      4.98545e-02	
     14459.60000	      4.97549e-02	
     14502.00000	      5.19272e-02	
     14544.20000	      5.38100e-02	
     14586.50000	      5.55531e-02	
     14628.60000	      5.42199e-02	
     14670.80000	      5.43449e-02	
     14712.80000	      5.43523e-02	
     14754.90000	      5.42318e-02	
     14796.90000	      5.51017e-02	
     14838.80000	      5.64031e-02	
     14880.70000	      5.58199e-02	
     14922.50000	      5.80266e-02	
     14964.30000	      5.83692e-02	
     15006.00000	      5.97085e-02	
     15047.70000	      6.00591e-02	
     15089.30000	      6.20094e-02	
     15130.90000	      6.21622e-02	
     15172.40000	      6.37704e-02	
     15213.80000	      6.50253e-02	
     15255.20000	      6.65710e-02	
     15296.60000	      6.71751e-02	
     15337.90000	      6.93554e-02	
     15379.10000	      6.92475e-02	
     15420.30000	      7.08841e-02	
     15461.40000	      7.23413e-02	
     15502.40000	      7.32048e-02	
     15543.40000	      7.40247e-02	
     15584.30000	      7.53658e-02	
     15625.20000	      7.60589e-02	
     15666.00000	      7.56634e-02	
     15706.80000	      7.63062e-02	
     15747.40000	      7.74745e-02	
     15788.10000	      7.84512e-02	
     15828.60000	      7.57062e-02	
     15869.10000	      7.39582e-02	
     15909.50000	      7.57274e-02	
     15949.90000	      7.78334e-02	
     15990.20000	      7.77326e-02	
     16030.50000	      7.93423e-02	
     16070.60000	      7.81730e-02	
     16110.80000	      7.71637e-02	
     16150.80000	      7.70470e-02	
     16190.80000	      7.82762e-02	
     16230.70000	      7.83865e-02	
     16270.60000	      7.80793e-02	
     16310.40000	      7.78570e-02	
     16350.10000	      7.89352e-02	
     16389.70000	      7.97182e-02	
     16429.30000	      8.08343e-02	
     16468.90000	      8.42170e-02	
     16508.30000	      8.38977e-02	
     16547.70000	      8.40040e-02	
     16587.10000	      8.26268e-02	
     16626.30000	      8.39225e-02	
     16665.50000	      8.33130e-02	
     16704.70000	      8.44635e-02	
     16743.70000	      8.31885e-02	
     16782.70000	      8.37811e-02	
     16821.70000	      8.47070e-02	
     16860.60000	      8.42110e-02	
     16899.40000	      8.50062e-02	
     16938.10000	      8.37511e-02	
     16976.80000	      8.27138e-02	
     17015.40000	      8.36522e-02	
     17053.90000	      8.26757e-02	
     17092.40000	      8.26530e-02	
     17130.80000	      8.00322e-02	
     17169.20000	      7.85435e-02	
     17207.50000	      7.71542e-02	
     17245.70000	      7.52170e-02	
     17283.90000	      7.37047e-02	
     17322.00000	      7.29690e-02	
     17360.00000	      7.04203e-02	
     17397.90000	      7.02134e-02	
     17435.80000	      6.92272e-02	
     17473.70000	      6.84301e-02	
     17511.50000	      6.55327e-02	
     17549.20000	      6.38696e-02	
     17586.80000	      6.24816e-02	
     17624.40000	      6.20384e-02	
     17661.90000	      6.11000e-02	
     17699.40000	      5.91183e-02	
     17736.80000	      5.68985e-02	
     17774.10000	      5.64798e-02	
     17811.40000	      5.49356e-02	
     17848.60000	      5.45567e-02	
     17885.70000	      5.27903e-02	
     17922.80000	      5.16717e-02	
     17959.80000	      5.21918e-02	
     17996.80000	      5.07824e-02	
     18033.70000	      4.79203e-02	
     18070.60000	      4.88865e-02	
     18107.30000	      4.98764e-02	
     18144.10000	      5.03823e-02	
     18180.70000	      4.95023e-02	
     18217.30000	      5.09960e-02	
     18253.90000	      5.03122e-02	
     18290.40000	      5.02904e-02	
     18326.80000	      4.77791e-02	
     18363.20000	      4.84467e-02	
     18399.50000	      4.38206e-02	
     18435.80000	      4.29097e-02	
     18472.00000	      4.37810e-02	
     18508.10000	      4.48153e-02	
     18544.20000	      4.39271e-02	
     18580.20000	      3.98912e-02	
     18616.20000	      3.86203e-02	
     18652.10000	      4.07930e-02	
     18688.00000	      4.10633e-02	
     18723.80000	      3.88458e-02	
     18759.50000	      4.04290e-02	
     18795.20000	      3.94195e-02	
     18830.90000	      4.32942e-02	
     18866.50000	      4.43274e-02	
     18902.00000	      4.50700e-02	
     18937.50000	      4.63239e-02	
     18972.90000	      4.47606e-02	
     19008.30000	      4.58131e-02	
     19043.60000	      4.75033e-02	
     19078.90000	      4.58230e-02	
     19114.10000	      4.48298e-02	
     19149.20000	      4.80295e-02	
     19184.40000	      4.47592e-02	
     19219.40000	      4.71404e-02	
     19254.40000	      4.62251e-02	
     19289.40000	      4.60692e-02	
     19324.30000	      4.52034e-02	
     19359.20000	      4.33814e-02	
     19394.00000	      4.30938e-02	
     19428.70000	      4.19855e-02	
     19463.40000	      4.21373e-02	
     19498.10000	      4.12641e-02	
     19532.70000	      4.17241e-02	
     19567.30000	      4.23413e-02	
     19601.80000	      4.22648e-02	
     19636.20000	      4.19942e-02	
     19670.70000	      4.19730e-02	
     19705.00000	      4.20436e-02	
     19739.30000	      4.09125e-02	
     19773.60000	      4.02501e-02	
     19807.80000	      3.92171e-02	
     19842.00000	      3.99234e-02	
     19876.10000	      3.91181e-02	
     19910.20000	      4.05225e-02	
     19944.30000	      4.15573e-02	
     19978.20000	      4.25393e-02	
     20012.20000	      4.09800e-02	
     20046.10000	      3.96960e-02	
     20079.90000	      3.94417e-02	
     20113.70000	      4.05225e-02	
     20147.50000	      3.98551e-02	
     20181.20000	      3.94116e-02	
     20214.80000	      4.10950e-02	
     20248.50000	      4.09229e-02	
     20282.00000	      4.17636e-02	
     20315.60000	      4.25308e-02	
     20349.00000	      4.33431e-02	
     20382.50000	      4.28588e-02	
     20415.80000	      4.32793e-02	
     20449.20000	      4.32975e-02	
     20482.50000	      4.37229e-02	
     20515.70000	      4.35851e-02	
     20548.90000	      4.43643e-02	
     20582.10000	      4.40764e-02	
     20615.20000	      4.51251e-02	
     20648.30000	      4.53012e-02	
     20681.30000	      4.51766e-02	
     20714.30000	      4.56202e-02	
     20747.20000	      4.53234e-02	
     20780.10000	      4.58794e-02	
     20813.00000	      4.63269e-02	
     20845.80000	      4.70135e-02	
     20878.50000	      4.80199e-02	
     20911.20000	      4.84733e-02	
     20943.90000	      4.87667e-02	
     20976.50000	      4.87104e-02	
     21009.10000	      4.92039e-02	
     21041.60000	      4.94742e-02	
     21074.10000	      4.97187e-02	
     21106.50000	      5.05913e-02	
     21138.90000	      5.11837e-02	
     21171.30000	      5.04780e-02	
     21203.60000	      5.17956e-02	
     21235.80000	      5.22264e-02	
     21268.00000	      5.11967e-02	
     21300.20000	      5.19320e-02	
     21332.30000	      5.25355e-02	
     21364.40000	      5.29055e-02	
     21396.40000	      5.33330e-02	
     21428.40000	      5.34320e-02	
     21460.30000	      5.33311e-02	
     21492.20000	      5.32749e-02	
     21524.00000	      5.35675e-02	
     21555.80000	      5.38669e-02	
     21587.60000	      5.32017e-02	
     21619.30000	      5.37409e-02	
     21650.90000	      5.38564e-02	
     21682.50000	      5.44614e-02	
     21714.10000	      5.40759e-02	
     21745.60000	      5.35538e-02	
     21777.00000	      5.35583e-02	
     21808.40000	      5.44227e-02	
     21839.80000	      5.40950e-02	
     21871.10000	      5.44467e-02	
     21902.40000	      5.38443e-02	
     21933.60000	      5.32442e-02	
     21964.80000	      5.42096e-02	
     21995.90000	      5.33827e-02	
     22026.90000	      5.37172e-02	
     22058.00000	      5.31084e-02	
     22088.90000	      5.32093e-02	
     22119.80000	      5.34867e-02	
     22150.70000	      5.27986e-02	
     22181.50000	      5.31456e-02	
     22212.30000	      5.34185e-02	
     22243.00000	      5.37550e-02	
     22273.70000	      5.38576e-02	
     22304.30000	      5.31466e-02	
     22334.90000	      5.35405e-02	
     22365.40000	      5.24005e-02	
     22395.90000	      5.22532e-02	
     22426.30000	      5.24366e-02	
     22456.70000	      5.28395e-02	
     22487.00000	      5.25889e-02	
     22517.20000	      5.28240e-02	
     22547.40000	      5.16197e-02	
     22577.60000	      5.15457e-02	
     22607.70000	      5.15036e-02	
     22637.80000	      5.06989e-02	
     22667.80000	      5.08798e-02	
     22697.70000	      5.11995e-02	
     22727.60000	      5.07133e-02	
     22757.50000	      5.04146e-02	
     22787.30000	      4.96270e-02	
     22817.00000	      4.98232e-02	
     22846.70000	      5.05428e-02	
     22876.30000	      5.02673e-02	
     22905.90000	      4.93688e-02	
     22935.50000	      4.64190e-02	
     22965.00000	      4.36176e-02	
     22994.40000	      4.17668e-02	
     23023.80000	      4.23319e-02	
     23053.10000	      4.35956e-02	
     23082.40000	      4.31842e-02	
     23111.60000	      4.29548e-02	
     23140.80000	      4.26429e-02	
     23169.90000	      4.27319e-02	
     23199.00000	      4.14241e-02	
     23228.00000	      3.98379e-02	
     23257.00000	      3.87959e-02	
     23285.90000	      3.86745e-02	
     23314.80000	      3.92429e-02	
     23343.60000	      3.88576e-02	
     23372.40000	      3.91997e-02	
     23401.10000	      3.97602e-02	
     23429.80000	      3.91777e-02	
     23458.40000	      3.96648e-02	
     23487.00000	      3.98588e-02	
     23515.50000	      3.90935e-02	
     23544.00000	      3.72330e-02	
     23572.40000	      3.57005e-02	
     23600.80000	      3.60692e-02	
     23629.20000	      3.65737e-02	
     23657.50000	      3.63238e-02	
     23685.70000	      3.72952e-02	
     23713.90000	      3.65547e-02	
     23742.10000	      3.77527e-02	
     23770.30000	      3.67813e-02	
     23798.30000	      3.64133e-02	
     23826.40000	      3.59787e-02	
     23854.40000	      3.47039e-02	
     23882.40000	      3.48902e-02	
     23910.30000	      3.52563e-02	
     23938.20000	      3.49581e-02	
     23966.10000	      3.43972e-02	
     23993.90000	      3.43526e-02	
     24021.70000	      3.48892e-02	
     24049.50000	      3.38928e-02	
     24077.20000	      3.33178e-02	
     24104.90000	      3.21361e-02	
     24132.60000	      3.21580e-02	
     24160.20000	      3.20504e-02	
     24187.80000	      3.09078e-02	
     24215.40000	      3.13093e-02	
     24243.00000	      3.05729e-02	
     24270.60000	      3.01563e-02	
     24298.10000	      3.00395e-02	
     24325.60000	      2.95463e-02	
     24353.10000	      2.91963e-02	
     24380.60000	      2.80754e-02	
     24408.10000	      2.88153e-02	
     24435.50000	      2.83871e-02	
     24463.00000	      2.68919e-02	
     24490.40000	      2.72811e-02	
     24517.90000	      2.62548e-02	
     24545.30000	      2.61768e-02	
     24572.70000	      2.67470e-02	
     24600.20000	      2.66458e-02	
     24627.60000	      2.56640e-02	
     24655.10000	      2.69963e-02	
     24682.50000	      1.51864e-02	
     24710.00000	      2.43101e-02	
     24737.50000	      2.41386e-02	
     24765.00000	      2.40733e-02	
     24792.50000	      2.50779e-02	
     24820.00000	      2.40182e-02	
     24847.60000	      2.49956e-02	
     24875.20000	      2.47555e-02	
     24902.80000	      2.43958e-02	
     24930.50000	      2.33058e-02	
     24958.20000	      2.32986e-02	
     24986.00000	      2.35390e-02	
     25013.80000	      2.26657e-02	
     25041.60000	      2.31643e-02	
     25069.50000	      2.33788e-02	
     25097.50000	      2.26384e-02	
     25125.50000	      2.28979e-02	
     25153.60000	      2.33145e-02	
     25181.70000	      2.28855e-02	
     25209.90000	      2.18956e-02	
     25238.20000	      2.25853e-02	
     25266.60000	      2.31073e-02	
     25295.10000	      2.18813e-02	
     25323.60000	      2.18445e-02	
     25352.30000	      2.13950e-02	
     25381.00000	      2.03925e-02	
     25409.90000	      2.61912e-02	
     25438.80000	      2.28142e-02	
     25467.90000	      2.28307e-02	
     25497.10000	      1.70193e-02	
     25526.50000	      2.76406e-02	
     25555.90000	      3.69221e-02	
     25585.50000	      1.60079e-02	
#time:0.015518
