# The SpeX Prism Spectral Libraries
# spty = Opt:M8V  (Spectral type)
#
#     WAVELENGTH	#           FLUX	
#     (ANGSTROM)	#  (ERG/CM2/S/A)	
################	################	
      6579.84000	     4.19205e-03	
      6601.68000	     3.39903e-03	
      6623.45000	     3.21889e-03	
      6645.14000	     2.89580e-03	
      6666.78000	     2.52885e-03	
      6688.37000	     3.45068e-03	
      6709.92000	     3.78908e-03	
      6731.44000	     3.12866e-03	
      6752.93000	     3.38692e-03	
      6774.40000	     3.51670e-03	
      6795.87000	     3.16227e-03	
      6817.34000	     3.63836e-03	
      6838.82000	     3.96239e-03	
      6860.31000	     3.89541e-03	
      6881.82000	     4.19417e-03	
      6903.36000	     4.70786e-03	
      6924.94000	     5.33643e-03	
      6946.56000	     6.29410e-03	
      6968.23000	     7.13412e-03	
      6989.96000	     8.03048e-03	
      7011.75000	     9.05364e-03	
      7033.60000	     8.25562e-03	
      7055.53000	     7.36435e-03	
      7077.54000	     5.69846e-03	
      7099.63000	     4.33011e-03	
      7121.81000	     3.95930e-03	
      7144.09000	     3.94051e-03	
      7166.46000	     4.24990e-03	
      7188.94000	     4.86962e-03	
      7211.53000	     5.96069e-03	
      7234.24000	     7.02803e-03	
      7257.06000	     8.50949e-03	
      7280.01000	     1.10035e-02	
      7303.08000	     1.40122e-02	
      7326.28000	     1.67236e-02	
      7349.62000	     1.83915e-02	
      7373.09000	     1.99045e-02	
      7396.71000	     2.00660e-02	
      7420.47000	     1.95156e-02	
      7444.38000	     2.02266e-02	
      7468.45000	     2.06220e-02	
      7492.66000	     2.19893e-02	
      7517.04000	     2.36489e-02	
      7541.58000	     2.42090e-02	
      7566.27000	     2.32696e-02	
      7591.14000	     2.09467e-02	
      7616.17000	     1.54119e-02	
      7641.38000	     1.06786e-02	
      7666.75000	     8.58072e-03	
      7692.30000	     8.66112e-03	
      7718.03000	     9.82272e-03	
      7743.94000	     1.15368e-02	
      7770.03000	     1.31715e-02	
      7796.30000	     1.41845e-02	
      7822.75000	     1.53222e-02	
      7849.39000	     1.64104e-02	
      7876.22000	     1.68214e-02	
      7903.23000	     1.68674e-02	
      7930.43000	     1.76249e-02	
      7957.83000	     1.84580e-02	
      7985.41000	     2.09936e-02	
      8013.19000	     2.47287e-02	
      8041.16000	     3.02824e-02	
      8069.33000	     3.65738e-02	
      8097.69000	     4.17191e-02	
      8126.24000	     4.50364e-02	
      8154.99000	     4.52095e-02	
      8183.94000	     4.58692e-02	
      8213.08000	     4.62820e-02	
      8242.42000	     4.61106e-02	
      8271.96000	     4.54676e-02	
      8301.69000	     4.38329e-02	
      8331.63000	     4.31253e-02	
      8361.75000	     4.27490e-02	
      8392.08000	     4.01689e-02	
      8422.60000	     3.47520e-02	
      8453.32000	     2.99876e-02	
      8484.24000	     2.66282e-02	
      8515.35000	     2.76117e-02	
      8546.65000	     3.02052e-02	
      8578.16000	     3.23934e-02	
      8609.85000	     3.38622e-02	
      8641.74000	     3.50220e-02	
      8673.83000	     3.56574e-02	
      8706.11000	     3.74722e-02	
      8738.57000	     4.05998e-02	
      8771.23000	     4.57811e-02	
      8804.09000	     4.81397e-02	
      8837.12000	     4.86186e-02	
      8870.35000	     4.80854e-02	
      8903.77000	     4.80102e-02	
      8937.37000	     5.05222e-02	
      8971.16000	     5.34427e-02	
      9005.13000	     5.70260e-02	
      9039.28000	     6.01953e-02	
      9073.62000	     6.47820e-02	
      9108.13000	     6.84727e-02	
      9142.83000	     7.25924e-02	
      9177.70000	     7.22052e-02	
      9212.75000	     7.11021e-02	
      9247.97000	     6.91572e-02	
      9283.37000	     6.82930e-02	
      9318.94000	     6.84625e-02	
      9354.68000	     6.98214e-02	
      9390.59000	     7.15312e-02	
      9426.67000	     7.35925e-02	
      9462.91000	     7.61776e-02	
      9499.32000	     7.77488e-02	
      9535.88000	     7.88409e-02	
      9572.61000	     7.92932e-02	
      9609.50000	     8.04776e-02	
      9646.55000	     8.23788e-02	
      9683.75000	     8.33734e-02	
      9721.10000	     8.43883e-02	
      9758.61000	     8.62103e-02	
      9796.27000	     8.72233e-02	
      9834.07000	     8.60919e-02	
      9872.02000	     7.93759e-02	
      9910.12000	     7.48498e-02	
      9948.36000	     7.16303e-02	
      9986.74000	     7.16084e-02	
     10025.30000	     7.36286e-02	
     10063.90000	     7.80581e-02	
     10102.70000	     8.19748e-02	
     10141.60000	     8.45612e-02	
     10180.70000	     8.40348e-02	
     10219.80000	     8.33652e-02	
     10259.20000	     8.28759e-02	
     10298.60000	     8.38735e-02	
     10338.10000	     8.61877e-02	
     10377.80000	     8.92969e-02	
     10417.60000	     9.15155e-02	
     10457.50000	     9.11704e-02	
     10497.50000	     9.01015e-02	
     10537.70000	     8.77171e-02	
     10577.90000	     8.79460e-02	
     10618.30000	     8.88968e-02	
     10658.70000	     9.11379e-02	
     10699.30000	     9.35220e-02	
     10740.00000	     9.63903e-02	
     10780.70000	     9.83274e-02	
     10821.60000	     1.00168e-01	
     10862.60000	     1.00737e-01	
     10903.60000	     1.00128e-01	
     10944.80000	     1.00682e-01	
     10986.00000	     1.01720e-01	
     11027.30000	     1.01196e-01	
     11068.70000	     9.91781e-02	
     11110.20000	     9.82253e-02	
     11151.80000	     9.83225e-02	
     11193.40000	     9.91733e-02	
     11235.20000	     1.00470e-01	
     11277.00000	     9.96059e-02	
     11318.80000	     9.55438e-02	
     11360.80000	     9.23692e-02	
     11402.80000	     9.12943e-02	
     11444.80000	     9.46296e-02	
     11487.00000	     9.99871e-02	
     11529.20000	     1.01945e-01	
     11571.50000	     1.02025e-01	
     11613.80000	     9.96400e-02	
     11656.20000	     9.75456e-02	
     11698.60000	     9.42588e-02	
     11741.10000	     9.19752e-02	
     11783.60000	     9.27580e-02	
     11826.20000	     9.29219e-02	
     11868.80000	     9.47764e-02	
     11911.50000	     9.22847e-02	
     11954.20000	     8.94024e-02	
     11996.90000	     8.83568e-02	
     12039.70000	     8.88737e-02	
     12082.60000	     9.17890e-02	
     12125.40000	     9.40926e-02	
     12168.30000	     9.57626e-02	
     12211.30000	     9.76244e-02	
     12254.20000	     9.78149e-02	
     12297.20000	     9.71561e-02	
     12340.20000	     9.44413e-02	
     12383.20000	     9.09071e-02	
     12426.30000	     8.90900e-02	
     12469.40000	     8.75389e-02	
     12512.50000	     9.01781e-02	
     12555.60000	     9.24010e-02	
     12598.70000	     9.47647e-02	
     12641.80000	     9.62623e-02	
     12685.00000	     9.72315e-02	
     12728.10000	     9.68177e-02	
     12771.30000	     9.56091e-02	
     12814.50000	     9.39832e-02	
     12857.60000	     9.47775e-02	
     12900.80000	     9.69860e-02	
     12944.00000	     9.70031e-02	
     12987.20000	     9.67291e-02	
     13030.40000	     9.67689e-02	
     13073.50000	     9.57756e-02	
     13116.70000	     9.58433e-02	
     13159.90000	     9.55858e-02	
     13203.00000	     9.58723e-02	
     13246.20000	     9.36315e-02	
     13289.30000	     8.78097e-02	
     13332.40000	     8.10015e-02	
     13375.60000	     7.48548e-02	
     13418.70000	     7.11361e-02	
     13461.70000	     6.91980e-02	
     13504.80000	     6.77647e-02	
     13547.80000	     6.54177e-02	
     13590.90000	     6.41712e-02	
     13633.90000	     6.31880e-02	
     13676.80000	     6.66308e-02	
     13719.80000	     6.76994e-02	
     13762.70000	     6.43415e-02	
     13805.60000	     6.61977e-02	
     13848.50000	     6.78182e-02	
     13891.40000	     6.62565e-02	
     13934.20000	     6.44124e-02	
     13977.00000	     6.15240e-02	
     14019.70000	     6.11439e-02	
     14062.40000	     6.06090e-02	
     14105.10000	     5.95313e-02	
     14147.80000	     5.83358e-02	
     14190.40000	     5.82054e-02	
     14233.00000	     5.80938e-02	
     14275.50000	     5.79106e-02	
     14318.00000	     5.74575e-02	
     14360.40000	     5.83149e-02	
     14402.90000	     5.90289e-02	
     14445.20000	     5.93856e-02	
     14487.60000	     6.00410e-02	
     14529.80000	     6.03540e-02	
     14572.10000	     5.99151e-02	
     14614.30000	     5.92808e-02	
     14656.40000	     5.83885e-02	
     14698.50000	     5.85175e-02	
     14740.60000	     5.86187e-02	
     14782.60000	     5.87067e-02	
     14824.50000	     5.86455e-02	
     14866.40000	     5.88413e-02	
     14908.30000	     5.95790e-02	
     14950.10000	     5.98923e-02	
     14991.80000	     6.04295e-02	
     15033.50000	     6.10397e-02	
     15075.20000	     6.12256e-02	
     15116.70000	     6.09981e-02	
     15158.30000	     6.12045e-02	
     15199.70000	     6.17739e-02	
     15241.20000	     6.26584e-02	
     15282.50000	     6.30506e-02	
     15323.80000	     6.33693e-02	
     15365.10000	     6.35594e-02	
     15406.30000	     6.36927e-02	
     15447.40000	     6.39822e-02	
     15488.50000	     6.42402e-02	
     15529.50000	     6.45374e-02	
     15570.40000	     6.47459e-02	
     15611.30000	     6.47995e-02	
     15652.10000	     6.45868e-02	
     15692.90000	     6.49266e-02	
     15733.60000	     6.58796e-02	
     15774.20000	     6.54678e-02	
     15814.80000	     6.44063e-02	
     15855.30000	     6.40712e-02	
     15895.80000	     6.44309e-02	
     15936.20000	     6.54557e-02	
     15976.50000	     6.53921e-02	
     16016.80000	     6.47231e-02	
     16057.00000	     6.39035e-02	
     16097.10000	     6.35781e-02	
     16137.20000	     6.45254e-02	
     16177.20000	     6.54510e-02	
     16217.10000	     6.48817e-02	
     16257.00000	     6.41596e-02	
     16296.80000	     6.37822e-02	
     16336.60000	     6.31244e-02	
     16376.30000	     6.34284e-02	
     16415.90000	     6.47084e-02	
     16455.40000	     6.65361e-02	
     16494.90000	     6.70513e-02	
     16534.30000	     6.69516e-02	
     16573.70000	     6.66865e-02	
     16613.00000	     6.65901e-02	
     16652.20000	     6.60854e-02	
     16691.40000	     6.54399e-02	
     16730.50000	     6.41454e-02	
     16769.50000	     6.40398e-02	
     16808.40000	     6.45638e-02	
     16847.30000	     6.60431e-02	
     16886.20000	     6.65780e-02	
     16924.90000	     6.56201e-02	
     16963.60000	     6.55926e-02	
     17002.30000	     6.51269e-02	
     17040.80000	     6.45057e-02	
     17079.30000	     6.37946e-02	
     17117.80000	     6.27241e-02	
     17156.20000	     6.15844e-02	
     17194.50000	     6.03533e-02	
     17232.70000	     5.94474e-02	
     17270.90000	     5.80960e-02	
     17309.00000	     5.65946e-02	
     17347.00000	     5.60525e-02	
     17385.00000	     5.61360e-02	
     17423.00000	     5.63053e-02	
     17460.80000	     5.55214e-02	
     17498.60000	     5.43611e-02	
     17536.30000	     5.32367e-02	
     17574.00000	     5.24138e-02	
     17611.60000	     5.17731e-02	
     17649.20000	     5.11436e-02	
     17686.60000	     5.02679e-02	
     17724.00000	     4.89919e-02	
     17761.40000	     4.81134e-02	
     17798.70000	     4.72763e-02	
     17835.90000	     4.66031e-02	
     17873.10000	     4.57650e-02	
     17910.20000	     4.49911e-02	
     17947.20000	     4.45936e-02	
     17984.20000	     4.36510e-02	
     18021.20000	     4.32654e-02	
     18058.00000	     4.21369e-02	
     18094.80000	     4.18872e-02	
     18131.60000	     4.13753e-02	
     18168.30000	     4.08287e-02	
     18204.90000	     4.24275e-02	
     18241.50000	     4.19666e-02	
     18278.00000	     4.23902e-02	
     18314.40000	     4.09294e-02	
     18350.80000	     3.93143e-02	
     18387.10000	     3.97721e-02	
     18423.40000	     3.88365e-02	
     18459.60000	     3.85399e-02	
     18495.80000	     3.83635e-02	
     18531.90000	     3.63321e-02	
     18568.00000	     3.60750e-02	
     18603.90000	     3.61186e-02	
     18639.90000	     3.41082e-02	
     18675.80000	     3.38411e-02	
     18711.60000	     3.10594e-02	
     18747.40000	     3.79959e-02	
     18783.10000	     3.82629e-02	
     18818.70000	     3.81126e-02	
     18854.30000	     3.76792e-02	
     18889.90000	     3.66422e-02	
     18925.40000	     3.72479e-02	
     18960.80000	     3.55936e-02	
     18996.20000	     3.61002e-02	
     19031.60000	     3.75890e-02	
     19066.90000	     3.87091e-02	
     19102.10000	     3.78603e-02	
     19137.30000	     3.86987e-02	
     19172.40000	     3.85965e-02	
     19207.50000	     3.85923e-02	
     19242.50000	     3.70833e-02	
     19277.50000	     3.66443e-02	
     19312.40000	     3.64640e-02	
     19347.30000	     3.55378e-02	
     19382.10000	     3.56195e-02	
     19416.90000	     3.43513e-02	
     19451.60000	     3.37912e-02	
     19486.30000	     3.30986e-02	
     19520.90000	     3.29915e-02	
     19555.50000	     3.42301e-02	
     19590.00000	     3.51081e-02	
     19624.50000	     3.58810e-02	
     19659.00000	     3.61799e-02	
     19693.30000	     3.58150e-02	
     19727.70000	     3.42446e-02	
     19762.00000	     3.22403e-02	
     19796.20000	     3.18242e-02	
     19830.40000	     3.19018e-02	
     19864.50000	     3.25005e-02	
     19898.60000	     3.25537e-02	
     19932.70000	     3.29581e-02	
     19966.70000	     3.31079e-02	
     20000.60000	     3.28568e-02	
     20034.50000	     3.22663e-02	
     20068.40000	     3.28002e-02	
     20102.20000	     3.28790e-02	
     20136.00000	     3.29654e-02	
     20169.70000	     3.36099e-02	
     20203.40000	     3.39187e-02	
     20237.00000	     3.37132e-02	
     20270.60000	     3.33575e-02	
     20304.10000	     3.32147e-02	
     20337.60000	     3.31541e-02	
     20371.10000	     3.32284e-02	
     20404.50000	     3.32710e-02	
     20437.80000	     3.32708e-02	
     20471.20000	     3.30654e-02	
     20504.40000	     3.28344e-02	
     20537.70000	     3.30337e-02	
     20570.80000	     3.35858e-02	
     20604.00000	     3.32282e-02	
     20637.00000	     3.33560e-02	
     20670.10000	     3.32781e-02	
     20703.10000	     3.35836e-02	
     20736.00000	     3.38452e-02	
     20768.90000	     3.38895e-02	
     20801.80000	     3.38333e-02	
     20834.60000	     3.39749e-02	
     20867.40000	     3.40537e-02	
     20900.10000	     3.43777e-02	
     20932.80000	     3.42340e-02	
     20965.40000	     3.43105e-02	
     20998.00000	     3.42947e-02	
     21030.50000	     3.45684e-02	
     21063.00000	     3.46105e-02	
     21095.50000	     3.47140e-02	
     21127.90000	     3.49860e-02	
     21160.30000	     3.51322e-02	
     21192.60000	     3.52980e-02	
     21224.80000	     3.53255e-02	
     21257.10000	     3.52737e-02	
     21289.30000	     3.53296e-02	
     21321.40000	     3.53803e-02	
     21353.50000	     3.56842e-02	
     21385.50000	     3.55770e-02	
     21417.50000	     3.58248e-02	
     21449.40000	     3.59178e-02	
     21481.30000	     3.59196e-02	
     21513.20000	     3.55500e-02	
     21545.00000	     3.54433e-02	
     21576.80000	     3.50917e-02	
     21608.50000	     3.50415e-02	
     21640.10000	     3.58092e-02	
     21671.80000	     3.68231e-02	
     21703.30000	     3.68472e-02	
     21734.80000	     3.63264e-02	
     21766.30000	     3.59340e-02	
     21797.70000	     3.59822e-02	
     21829.10000	     3.61038e-02	
     21860.50000	     3.62124e-02	
     21891.70000	     3.60958e-02	
     21923.00000	     3.62275e-02	
     21954.20000	     3.61282e-02	
     21985.30000	     3.61529e-02	
     22016.40000	     3.56299e-02	
     22047.40000	     3.48409e-02	
     22078.40000	     3.43880e-02	
     22109.30000	     3.46996e-02	
     22140.20000	     3.56303e-02	
     22171.10000	     3.60316e-02	
     22201.80000	     3.60458e-02	
     22232.60000	     3.64008e-02	
     22263.30000	     3.62922e-02	
     22293.90000	     3.61387e-02	
     22324.50000	     3.57452e-02	
     22355.00000	     3.56062e-02	
     22385.50000	     3.56018e-02	
     22415.90000	     3.60308e-02	
     22446.30000	     3.59653e-02	
     22476.70000	     3.57698e-02	
     22506.90000	     3.56854e-02	
     22537.20000	     3.56541e-02	
     22567.30000	     3.55799e-02	
     22597.50000	     3.52199e-02	
     22627.50000	     3.49176e-02	
     22657.60000	     3.47492e-02	
     22687.50000	     3.46694e-02	
     22717.40000	     3.46802e-02	
     22747.30000	     3.46510e-02	
     22777.10000	     3.46969e-02	
     22806.90000	     3.44702e-02	
     22836.60000	     3.44713e-02	
     22866.30000	     3.44534e-02	
     22895.90000	     3.41933e-02	
     22925.40000	     3.25460e-02	
     22954.90000	     3.07500e-02	
     22984.40000	     2.96265e-02	
     23013.80000	     3.01464e-02	
     23043.10000	     3.06131e-02	
     23072.40000	     3.09956e-02	
     23101.70000	     3.08481e-02	
     23130.90000	     3.07094e-02	
     23160.00000	     3.03948e-02	
     23189.10000	     3.01020e-02	
     23218.10000	     2.89609e-02	
     23247.10000	     2.75741e-02	
     23276.10000	     2.73180e-02	
     23304.90000	     2.76960e-02	
     23333.80000	     2.78948e-02	
     23362.60000	     2.79145e-02	
     23391.30000	     2.77145e-02	
     23420.00000	     2.77971e-02	
     23448.70000	     2.81347e-02	
     23477.20000	     2.81464e-02	
     23505.80000	     2.74278e-02	
     23534.30000	     2.63569e-02	
     23562.80000	     2.56841e-02	
     23591.20000	     2.58361e-02	
     23619.50000	     2.62271e-02	
     23647.80000	     2.63880e-02	
     23676.10000	     2.62598e-02	
     23704.40000	     2.61492e-02	
     23732.50000	     2.67606e-02	
     23760.70000	     2.65865e-02	
     23788.80000	     2.61600e-02	
     23816.90000	     2.52887e-02	
     23844.90000	     2.48142e-02	
     23872.90000	     2.43870e-02	
     23900.80000	     2.44383e-02	
     23928.70000	     2.47059e-02	
     23956.60000	     2.46484e-02	
     23984.40000	     2.44279e-02	
     24012.20000	     2.39878e-02	
     24040.00000	     2.35580e-02	
     24067.80000	     2.32662e-02	
     24095.50000	     2.30627e-02	
     24123.20000	     2.25682e-02	
     24150.80000	     2.19537e-02	
     24178.40000	     2.19395e-02	
     24206.00000	     2.21364e-02	
     24233.60000	     2.19237e-02	
     24261.20000	     2.19519e-02	
     24288.70000	     2.17793e-02	
     24316.20000	     2.10642e-02	
     24343.70000	     2.05803e-02	
     24371.20000	     2.12009e-02	
     24398.70000	     2.09068e-02	
     24426.20000	     1.99797e-02	
     24453.60000	     1.96402e-02	
     24481.10000	     1.93840e-02	
     24508.50000	     1.93124e-02	
     24536.00000	     1.97585e-02	
     24563.40000	     1.94628e-02	
     24590.80000	     1.85761e-02	
     24618.30000	     1.84861e-02	
     24645.70000	     1.88624e-02	
     24673.20000	     1.81297e-02	
     24700.60000	     1.78779e-02	
     24728.10000	     1.76859e-02	
     24755.60000	     1.80333e-02	
     24783.10000	     1.74216e-02	
     24810.70000	     1.72480e-02	
     24838.20000	     1.73031e-02	
     24865.80000	     1.70978e-02	
     24893.40000	     1.64575e-02	
     24921.10000	     1.62255e-02	
     24948.80000	     1.70123e-02	
     24976.50000	     1.77233e-02	
     25004.30000	     1.66485e-02	
     25032.10000	     1.56476e-02	
     25060.00000	     1.56160e-02	
     25087.90000	     1.55621e-02	
     25115.90000	     1.57443e-02	
     25144.00000	     1.50134e-02	
     25172.10000	     1.49311e-02	
     25200.30000	     1.63862e-02	
     25228.60000	     1.55327e-02	
     25256.90000	     1.51234e-02	
     25285.40000	     1.48212e-02	
     25313.90000	     1.40402e-02	
     25342.50000	     1.44248e-02	
     25371.20000	     1.50802e-02	
     25400.00000	     1.56976e-02	
     25429.00000	     1.41597e-02	
     25458.00000	     1.34504e-02	
     25487.20000	     1.29691e-02	
     25516.50000	     1.39324e-02	
     25545.90000	     1.46039e-02	
     25575.40000	     1.70694e-02	
     25605.10000	     1.50876e-02	
#time:0.015546
