# The SpeX Prism Spectral Libraries
# spty = Opt:L8,NIR:L8  (Spectral type)
#
#     WAVELENGTH	#            FLUX	
#     (ANGSTROM)	#   (ERG/CM2/S/A)	
################	#################	
      6588.77000	     -9.63341e-04	
      6610.58000	      1.33606e-02	
      6632.31000	     -9.70439e-03	
      6653.98000	     -2.48882e-02	
      6675.60000	     -1.09932e-03	
      6697.17000	      1.50149e-02	
      6718.71000	     -3.68004e-03	
      6740.21000	     -1.91222e-02	
      6761.70000	     -3.81494e-03	
      6783.17000	      1.83648e-02	
      6804.64000	     -1.36413e-02	
      6826.11000	      1.11057e-02	
      6847.59000	     -8.93892e-03	
      6869.09000	      1.91845e-02	
      6890.61000	      1.12034e-02	
      6912.17000	     -1.60444e-02	
      6933.76000	     -4.02117e-03	
      6955.40000	      1.15203e-02	
      6977.10000	      6.89668e-03	
      6998.85000	      1.37972e-02	
      7020.66000	      1.71012e-03	
      7042.55000	      1.48154e-02	
      7064.50000	      1.22336e-02	
      7086.55000	     -6.34423e-03	
      7108.67000	      1.23622e-03	
      7130.89000	     -4.50785e-03	
      7153.21000	      6.26927e-03	
      7175.63000	      8.40644e-04	
      7198.15000	      7.21794e-03	
      7220.79000	      8.62819e-03	
      7243.54000	     -3.01530e-03	
      7266.41000	     -8.61123e-04	
      7289.41000	     -4.47333e-03	
      7312.53000	      2.69760e-03	
      7335.79000	     -5.67244e-07	
      7359.18000	      9.39142e-03	
      7382.72000	      2.76620e-03	
      7406.39000	      5.93939e-03	
      7430.22000	     -5.52532e-03	
      7454.19000	      6.57722e-03	
      7478.31000	     -8.65954e-04	
      7502.60000	      4.28705e-03	
      7527.04000	      2.99797e-03	
      7551.64000	     -4.77802e-03	
      7576.40000	      6.96786e-04	
      7601.34000	     -5.87608e-04	
      7626.44000	     -1.99839e-03	
      7651.71000	     -1.22620e-03	
      7677.16000	      8.27661e-04	
      7702.79000	     -3.89211e-03	
      7728.59000	      8.61464e-03	
      7754.57000	      2.89704e-03	
      7780.73000	      2.80140e-03	
      7807.07000	      1.96191e-03	
      7833.60000	     -1.33169e-03	
      7860.32000	     -1.51603e-03	
      7887.22000	      3.92541e-03	
      7914.31000	     -3.24394e-03	
      7941.60000	      1.61883e-03	
      7969.07000	      4.93439e-03	
      7996.73000	      4.98891e-03	
      8024.59000	      7.10829e-03	
      8052.64000	      5.05437e-03	
      8080.88000	      3.25378e-03	
      8109.32000	      6.07592e-03	
      8137.96000	      5.97260e-03	
      8166.79000	      8.47832e-03	
      8195.81000	      1.31321e-02	
      8225.04000	      1.47538e-02	
      8254.46000	      1.12652e-02	
      8284.08000	      1.26479e-02	
      8313.89000	      1.22337e-02	
      8343.90000	      1.25417e-02	
      8374.11000	      1.17669e-02	
      8404.52000	      1.82829e-02	
      8435.12000	      1.56266e-02	
      8465.92000	      1.47174e-02	
      8496.91000	      1.47897e-02	
      8528.11000	      2.20512e-02	
      8559.49000	      1.61226e-02	
      8591.07000	      1.31898e-02	
      8622.85000	      1.67181e-02	
      8654.82000	      1.76601e-02	
      8686.98000	      1.78776e-02	
      8719.34000	      1.51382e-02	
      8751.89000	      1.92306e-02	
      8784.62000	      2.13515e-02	
      8817.55000	      1.99072e-02	
      8850.67000	      2.20578e-02	
      8883.97000	      2.18536e-02	
      8917.46000	      2.42729e-02	
      8951.14000	      2.51335e-02	
      8985.00000	      2.75219e-02	
      9019.05000	      2.72180e-02	
      9053.28000	      3.15556e-02	
      9087.69000	      2.73784e-02	
      9122.28000	      3.05459e-02	
      9157.04000	      3.46544e-02	
      9191.99000	      3.78696e-02	
      9227.11000	      3.25390e-02	
      9262.41000	      3.45209e-02	
      9297.87000	      3.38558e-02	
      9333.51000	      3.77960e-02	
      9369.32000	      3.43273e-02	
      9405.30000	      3.60081e-02	
      9441.44000	      4.02829e-02	
      9477.75000	      4.02284e-02	
      9514.23000	      4.18927e-02	
      9550.86000	      4.00224e-02	
      9587.65000	      4.27756e-02	
      9624.61000	      4.35873e-02	
      9661.72000	      4.11112e-02	
      9698.98000	      4.81830e-02	
      9736.40000	      4.87291e-02	
      9773.97000	      5.21016e-02	
      9811.68000	      5.15826e-02	
      9849.55000	      4.82417e-02	
      9887.56000	      4.60935e-02	
      9925.71000	      4.92462e-02	
      9964.01000	      4.91295e-02	
     10002.40000	      5.03291e-02	
     10041.00000	      5.04893e-02	
     10079.70000	      5.35863e-02	
     10118.60000	      5.01023e-02	
     10157.50000	      5.18150e-02	
     10196.70000	      5.47427e-02	
     10235.90000	      5.57935e-02	
     10275.20000	      5.71441e-02	
     10314.70000	      6.16073e-02	
     10354.30000	      5.68704e-02	
     10394.10000	      6.08041e-02	
     10433.90000	      6.07015e-02	
     10473.80000	      6.07289e-02	
     10513.90000	      6.23822e-02	
     10554.10000	      6.35677e-02	
     10594.40000	      6.55377e-02	
     10634.80000	      6.58718e-02	
     10675.30000	      6.67062e-02	
     10715.90000	      6.76884e-02	
     10756.60000	      6.82910e-02	
     10797.40000	      7.07282e-02	
     10838.30000	      6.98372e-02	
     10879.30000	      6.87214e-02	
     10920.40000	      7.01295e-02	
     10961.60000	      6.84317e-02	
     11002.90000	      6.70390e-02	
     11044.20000	      6.40518e-02	
     11085.70000	      6.70827e-02	
     11127.20000	      6.54047e-02	
     11168.80000	      6.45863e-02	
     11210.50000	      6.62186e-02	
     11252.20000	      6.65983e-02	
     11294.00000	      6.45536e-02	
     11335.90000	      6.42979e-02	
     11377.90000	      6.52827e-02	
     11419.90000	      6.50116e-02	
     11462.00000	      6.82383e-02	
     11504.20000	      6.85313e-02	
     11546.40000	      6.82608e-02	
     11588.70000	      6.67191e-02	
     11631.10000	      6.70968e-02	
     11673.50000	      6.81028e-02	
     11715.90000	      6.63433e-02	
     11758.40000	      6.70069e-02	
     11801.00000	      6.88152e-02	
     11843.60000	      7.11317e-02	
     11886.20000	      7.19546e-02	
     11928.90000	      7.63678e-02	
     11971.60000	      7.72569e-02	
     12014.40000	      7.73558e-02	
     12057.20000	      8.03719e-02	
     12100.10000	      7.97121e-02	
     12142.90000	      7.97481e-02	
     12185.90000	      8.29928e-02	
     12228.80000	      8.49708e-02	
     12271.80000	      8.77093e-02	
     12314.80000	      8.96962e-02	
     12357.80000	      8.84834e-02	
     12400.80000	      8.86260e-02	
     12443.90000	      8.95099e-02	
     12487.00000	      8.80022e-02	
     12530.10000	      9.39155e-02	
     12573.20000	      9.29609e-02	
     12616.30000	      9.49459e-02	
     12659.40000	      9.48829e-02	
     12702.60000	      9.74840e-02	
     12745.80000	      9.61504e-02	
     12788.90000	      9.45694e-02	
     12832.10000	      9.49703e-02	
     12875.30000	      9.21258e-02	
     12918.50000	      9.45405e-02	
     12961.60000	      9.77936e-02	
     13004.80000	      9.48495e-02	
     13048.00000	      9.53525e-02	
     13091.20000	      9.51322e-02	
     13134.30000	      9.51746e-02	
     13177.50000	      9.48540e-02	
     13220.70000	      9.35994e-02	
     13263.80000	      8.76091e-02	
     13306.90000	      8.07747e-02	
     13350.10000	      7.37019e-02	
     13393.20000	      6.48940e-02	
     13436.20000	      5.33032e-02	
     13479.30000	      5.12057e-02	
     13522.40000	      4.90994e-02	
     13565.40000	      5.00988e-02	
     13608.40000	      4.87253e-02	
     13651.40000	      5.19257e-02	
     13694.40000	      5.03510e-02	
     13737.30000	      5.91181e-02	
     13780.30000	      5.92921e-02	
     13823.10000	      5.93186e-02	
     13866.00000	      5.71882e-02	
     13908.80000	      5.73318e-02	
     13951.60000	      5.89073e-02	
     13994.40000	      5.47682e-02	
     14037.20000	      5.46463e-02	
     14079.90000	      4.83307e-02	
     14122.50000	      4.71057e-02	
     14165.20000	      4.60783e-02	
     14207.80000	      4.87151e-02	
     14250.30000	      4.51872e-02	
     14292.80000	      4.25428e-02	
     14335.30000	      4.80057e-02	
     14377.80000	      4.61795e-02	
     14420.20000	      4.89750e-02	
     14462.50000	      5.02774e-02	
     14504.80000	      5.22922e-02	
     14547.10000	      5.27085e-02	
     14589.30000	      5.56193e-02	
     14631.50000	      5.51823e-02	
     14673.60000	      5.86099e-02	
     14715.70000	      5.99596e-02	
     14757.70000	      5.58302e-02	
     14799.70000	      6.05763e-02	
     14841.60000	      6.22522e-02	
     14883.50000	      6.22350e-02	
     14925.40000	      6.41515e-02	
     14967.10000	      6.18286e-02	
     15008.90000	      6.26099e-02	
     15050.50000	      6.81722e-02	
     15092.10000	      7.01707e-02	
     15133.70000	      6.90066e-02	
     15175.20000	      6.84741e-02	
     15216.70000	      7.47747e-02	
     15258.10000	      7.24781e-02	
     15299.40000	      7.91166e-02	
     15340.70000	      8.04066e-02	
     15381.90000	      8.29068e-02	
     15423.10000	      8.53588e-02	
     15464.20000	      8.47845e-02	
     15505.20000	      9.05654e-02	
     15546.20000	      8.83164e-02	
     15587.10000	      9.00174e-02	
     15628.00000	      8.02941e-02	
     15668.80000	      8.91444e-02	
     15709.50000	      9.27335e-02	
     15750.20000	      9.62191e-02	
     15790.80000	      9.36431e-02	
     15831.40000	      9.45412e-02	
     15871.90000	      9.25375e-02	
     15912.30000	      9.68968e-02	
     15952.70000	      9.64195e-02	
     15993.00000	      9.48200e-02	
     16033.20000	      9.98480e-02	
     16073.40000	      9.71371e-02	
     16113.50000	      9.82600e-02	
     16153.50000	      9.94979e-02	
     16193.50000	      9.84431e-02	
     16233.40000	      1.01503e-01	
     16273.30000	      9.58895e-02	
     16313.10000	      1.02398e-01	
     16352.80000	      1.00020e-01	
     16392.40000	      9.89615e-02	
     16432.00000	      9.74159e-02	
     16471.60000	      1.00187e-01	
     16511.00000	      9.86396e-02	
     16550.40000	      9.89698e-02	
     16589.70000	      1.02506e-01	
     16629.00000	      1.00699e-01	
     16668.20000	      1.01310e-01	
     16707.30000	      9.88934e-02	
     16746.40000	      1.00321e-01	
     16785.40000	      9.99347e-02	
     16824.30000	      1.00324e-01	
     16863.20000	      9.76992e-02	
     16902.00000	      9.89493e-02	
     16940.70000	      9.61080e-02	
     16979.40000	      9.49362e-02	
     17018.00000	      9.76073e-02	
     17056.60000	      9.29647e-02	
     17095.00000	      9.67170e-02	
     17133.50000	      9.56532e-02	
     17171.80000	      9.43793e-02	
     17210.10000	      9.49292e-02	
     17248.30000	      8.99924e-02	
     17286.50000	      8.79341e-02	
     17324.50000	      8.42166e-02	
     17362.60000	      8.03539e-02	
     17400.50000	      8.38793e-02	
     17438.40000	      7.93961e-02	
     17476.30000	      7.84755e-02	
     17514.00000	      7.51935e-02	
     17551.70000	      7.46167e-02	
     17589.40000	      7.11818e-02	
     17626.90000	      7.04000e-02	
     17664.50000	      6.70762e-02	
     17701.90000	      6.54163e-02	
     17739.30000	      6.48927e-02	
     17776.60000	      6.22427e-02	
     17813.90000	      3.40255e-02	
     17851.10000	      5.86038e-02	
     17888.30000	      6.17657e-02	
     17925.30000	      5.72026e-02	
     17962.40000	      5.83804e-02	
     17999.30000	      3.55976e-02	
     18036.20000	      5.83067e-02	
     18073.10000	      5.73968e-02	
     18109.80000	      4.30955e-02	
     18146.60000	      6.28535e-02	
     18183.20000	      6.04596e-02	
     18219.80000	      5.47387e-02	
     18256.40000	      6.54857e-02	
     18292.90000	      6.31850e-02	
     18329.30000	      6.56668e-02	
     18365.60000	      6.78413e-02	
     18402.00000	      6.46820e-02	
     18438.20000	      5.89276e-02	
     18474.40000	      5.96308e-02	
     18510.50000	      5.89802e-02	
     18546.60000	      5.92713e-02	
     18582.70000	      5.91113e-02	
     18618.60000	      6.15493e-02	
     18654.50000	      5.34234e-02	
     18690.40000	      5.88567e-02	
     18726.20000	      5.12422e-02	
     18761.90000	      5.33050e-02	
     18797.60000	      5.41375e-02	
     18833.30000	      5.14445e-02	
     18868.90000	      5.84008e-02	
     18904.40000	      6.34406e-02	
     18939.90000	      6.13471e-02	
     18975.30000	      6.95251e-02	
     19010.70000	      6.27162e-02	
     19046.00000	      6.99529e-02	
     19081.30000	      6.40890e-02	
     19116.50000	      7.41959e-02	
     19151.60000	      7.01405e-02	
     19186.70000	      6.96098e-02	
     19221.80000	      7.01405e-02	
     19256.80000	      7.03235e-02	
     19291.80000	      5.89308e-02	
     19326.70000	      5.85912e-02	
     19361.50000	      5.49873e-02	
     19396.30000	      5.56872e-02	
     19431.10000	      5.47466e-02	
     19465.80000	      5.18674e-02	
     19500.40000	      5.40491e-02	
     19535.10000	      5.15809e-02	
     19569.60000	      4.80666e-02	
     19604.10000	      4.66453e-02	
     19638.60000	      5.13491e-02	
     19673.00000	      5.18973e-02	
     19707.40000	      4.89786e-02	
     19741.70000	      4.89994e-02	
     19775.90000	      4.70903e-02	
     19810.20000	      5.00960e-02	
     19844.30000	      4.57326e-02	
     19878.50000	      5.13229e-02	
     19912.50000	      5.07260e-02	
     19946.60000	      5.19797e-02	
     19980.50000	      5.31472e-02	
     20014.50000	      5.48714e-02	
     20048.40000	      5.91944e-02	
     20082.20000	      5.30906e-02	
     20116.00000	      6.10937e-02	
     20149.80000	      6.24534e-02	
     20183.50000	      6.32932e-02	
     20217.10000	      5.46763e-02	
     20250.70000	      5.62155e-02	
     20284.30000	      5.70226e-02	
     20317.80000	      5.90101e-02	
     20351.30000	      6.21899e-02	
     20384.70000	      6.16256e-02	
     20418.10000	      6.27741e-02	
     20451.50000	      6.33683e-02	
     20484.70000	      6.49441e-02	
     20518.00000	      6.78317e-02	
     20551.20000	      6.70017e-02	
     20584.40000	      6.72144e-02	
     20617.50000	      7.03878e-02	
     20650.50000	      6.93420e-02	
     20683.60000	      6.77379e-02	
     20716.50000	      7.04173e-02	
     20749.50000	      6.90368e-02	
     20782.40000	      7.07450e-02	
     20815.20000	      7.14355e-02	
     20848.00000	      6.92732e-02	
     20880.70000	      7.07970e-02	
     20913.40000	      7.14516e-02	
     20946.10000	      7.13931e-02	
     20978.70000	      7.07886e-02	
     21011.30000	      7.21036e-02	
     21043.80000	      7.26137e-02	
     21076.30000	      7.11227e-02	
     21108.70000	      7.18415e-02	
     21141.10000	      7.25347e-02	
     21173.50000	      6.96497e-02	
     21205.80000	      7.00319e-02	
     21238.00000	      6.97749e-02	
     21270.20000	      7.16681e-02	
     21302.40000	      6.85325e-02	
     21334.50000	      7.39017e-02	
     21366.60000	      7.21627e-02	
     21398.60000	      7.12794e-02	
     21430.50000	      7.19103e-02	
     21462.50000	      6.96722e-02	
     21494.40000	      7.08278e-02	
     21526.20000	      6.98238e-02	
     21558.00000	      6.77880e-02	
     21589.70000	      6.91769e-02	
     21621.40000	      6.89919e-02	
     21653.10000	      7.01713e-02	
     21684.70000	      6.67460e-02	
     21716.20000	      6.87099e-02	
     21747.70000	      7.01488e-02	
     21779.20000	      6.94146e-02	
     21810.60000	      7.03737e-02	
     21841.90000	      6.85660e-02	
     21873.20000	      6.69336e-02	
     21904.50000	      6.48703e-02	
     21935.70000	      6.54548e-02	
     21966.90000	      6.73570e-02	
     21998.00000	      6.75991e-02	
     22029.00000	      6.69336e-02	
     22060.10000	      6.50456e-02	
     22091.00000	      6.65180e-02	
     22121.90000	      6.51921e-02	
     22152.80000	      6.40619e-02	
     22183.60000	      6.23248e-02	
     22214.40000	      6.33504e-02	
     22245.10000	      6.50745e-02	
     22275.80000	      6.19756e-02	
     22306.40000	      6.32089e-02	
     22337.00000	      6.30033e-02	
     22367.50000	      6.37224e-02	
     22397.90000	      6.15059e-02	
     22428.40000	      6.35253e-02	
     22458.70000	      6.30182e-02	
     22489.00000	      6.12144e-02	
     22519.30000	      6.09822e-02	
     22549.50000	      6.00881e-02	
     22579.60000	      6.22964e-02	
     22609.80000	      6.25137e-02	
     22639.80000	      6.16763e-02	
     22669.80000	      5.92915e-02	
     22699.80000	      6.02663e-02	
     22729.60000	      5.88138e-02	
     22759.50000	      5.90522e-02	
     22789.30000	      5.99315e-02	
     22819.00000	      5.97290e-02	
     22848.70000	      5.84726e-02	
     22878.40000	      5.82142e-02	
     22907.90000	      5.82468e-02	
     22937.50000	      5.48849e-02	
     22967.00000	      5.19790e-02	
     22996.40000	      5.06943e-02	
     23025.80000	      4.60078e-02	
     23055.10000	      4.74503e-02	
     23084.40000	      4.62404e-02	
     23113.60000	      4.72821e-02	
     23142.80000	      4.75513e-02	
     23171.90000	      4.71043e-02	
     23200.90000	      4.66794e-02	
     23230.00000	      4.54844e-02	
     23258.90000	      4.52882e-02	
     23287.90000	      4.44552e-02	
     23316.70000	      4.31258e-02	
     23345.50000	      4.44854e-02	
     23374.30000	      4.38224e-02	
     23403.00000	      4.54592e-02	
     23431.70000	      4.53058e-02	
     23460.30000	      4.59286e-02	
     23488.90000	      4.27892e-02	
     23517.40000	      4.63437e-02	
     23545.90000	      4.62043e-02	
     23574.40000	      4.48540e-02	
     23602.70000	      4.51732e-02	
     23631.10000	      4.34413e-02	
     23659.40000	      4.68026e-02	
     23687.70000	      4.53444e-02	
     23715.90000	      4.51125e-02	
     23744.00000	      4.20258e-02	
     23772.20000	      4.45901e-02	
     23800.30000	      4.43301e-02	
     23828.30000	      4.24254e-02	
     23856.30000	      4.29490e-02	
     23884.30000	      4.38309e-02	
     23912.20000	      4.63973e-02	
     23940.10000	      4.40571e-02	
     23968.00000	      4.42436e-02	
     23995.80000	      4.36288e-02	
     24023.60000	      4.32414e-02	
     24051.40000	      4.44929e-02	
     24079.10000	      4.53226e-02	
     24106.80000	      4.12512e-02	
     24134.50000	      4.14779e-02	
     24162.10000	      4.11304e-02	
     24189.70000	      4.32010e-02	
     24217.30000	      4.26491e-02	
     24244.90000	      4.16503e-02	
     24272.40000	      4.09061e-02	
     24300.00000	      4.35847e-02	
     24327.50000	      4.39109e-02	
     24355.00000	      3.97380e-02	
     24382.50000	      3.94804e-02	
     24409.90000	      4.22740e-02	
     24437.40000	      4.44186e-02	
     24464.80000	      3.92161e-02	
     24492.30000	      4.15709e-02	
     24519.70000	      3.53786e-02	
     24547.20000	      3.55213e-02	
     24574.60000	      3.67960e-02	
     24602.00000	      3.81617e-02	
     24629.50000	      3.96472e-02	
     24656.90000	      3.64910e-02	
     24684.40000	      3.89265e-02	
     24711.80000	      3.73652e-02	
     24739.30000	      3.11182e-02	
     24766.80000	      2.57395e-02	
     24794.40000	      2.79672e-02	
     24821.90000	      3.59267e-02	
     24849.50000	      3.49815e-02	
     24877.10000	      3.38631e-02	
     24904.70000	      3.94277e-02	
     24932.40000	      3.21245e-02	
     24960.10000	      2.78470e-02	
     24987.90000	      3.38966e-02	
     25015.70000	      2.74135e-02	
     25043.50000	      3.27602e-02	
     25071.40000	      3.66360e-02	
     25099.40000	      3.54801e-02	
     25127.40000	      2.67538e-02	
     25155.50000	      2.76746e-02	
     25183.60000	      2.68031e-02	
     25211.80000	      3.56334e-02	
     25240.10000	      3.31113e-02	
     25268.50000	      1.47580e-02	
     25297.00000	      5.20767e-02	
     25325.60000	      3.34241e-02	
     25354.20000	      6.12845e-03	
     25383.00000	      9.29943e-03	
     25411.80000	      2.14276e-02	
     25440.80000	      6.21662e-02	
     25469.90000	      1.73465e-02	
     25499.10000	      4.74314e-02	
     25528.50000	      2.69202e-02	
     25557.90000	      3.51952e-02	
     25587.50000	      1.28088e-01	
     25617.30000	      9.38358e-03	
     25647.20000	      8.71594e-02	
     25677.20000	      3.24681e-02	
     25707.40000	      1.91279e-01	
#time:0.015805
