# The SpeX Prism Spectral Libraries
# spty = Opt:L0,NIR:L1  (Spectral type)
#
#     WAVELENGTH	#            FLUX	
#     (ANGSTROM)	#   (ERG/CM2/S/A)	
################	#################	
      6576.69000	      1.55371e-02	
      6598.54000	      7.18279e-03	
      6620.31000	     -1.47441e-03	
      6642.02000	     -5.43488e-03	
      6663.67000	     -2.97118e-03	
      6685.26000	      1.30519e-02	
      6706.81000	      3.34739e-03	
      6728.33000	      6.27083e-03	
      6749.83000	      8.28343e-04	
      6771.31000	      6.40918e-03	
      6792.78000	      4.38893e-03	
      6814.24000	      3.75092e-03	
      6835.72000	     -1.17973e-03	
      6857.21000	     -9.04100e-04	
      6878.72000	      2.38102e-03	
      6900.26000	      4.91095e-03	
      6921.83000	      5.23850e-03	
      6943.44000	      2.20730e-03	
      6965.11000	      5.44011e-03	
      6986.82000	      9.30097e-03	
      7008.60000	      6.39265e-03	
      7030.45000	      9.50683e-03	
      7052.36000	      4.46359e-03	
      7074.36000	      7.92420e-03	
      7096.44000	      6.62429e-03	
      7118.61000	      5.43800e-03	
      7140.87000	      4.85162e-03	
      7163.23000	      5.76668e-03	
      7185.70000	      4.44973e-03	
      7208.27000	      6.24229e-03	
      7230.96000	      4.38497e-03	
      7253.76000	      2.73168e-03	
      7276.69000	      6.24043e-03	
      7299.74000	      1.11200e-02	
      7322.93000	      1.40181e-02	
      7346.24000	      1.10173e-02	
      7369.70000	      8.57305e-03	
      7393.30000	      1.06176e-02	
      7417.04000	      9.99396e-03	
      7440.93000	      1.06646e-02	
      7464.97000	      9.12873e-03	
      7489.16000	      6.72936e-03	
      7513.51000	      1.12233e-02	
      7538.03000	      1.09360e-02	
      7562.70000	      1.02057e-02	
      7587.54000	      1.00222e-02	
      7612.55000	      1.17135e-02	
      7637.73000	      9.54902e-03	
      7663.08000	      7.68011e-03	
      7688.61000	      7.24425e-03	
      7714.31000	      5.92607e-03	
      7740.19000	      8.99846e-03	
      7766.25000	      6.22787e-03	
      7792.50000	      9.00116e-03	
      7818.93000	      9.67293e-03	
      7845.54000	      9.13893e-03	
      7872.34000	      8.95448e-03	
      7899.32000	      1.10389e-02	
      7926.50000	      1.04683e-02	
      7953.87000	      1.11844e-02	
      7981.43000	      9.50112e-03	
      8009.18000	      1.27092e-02	
      8037.12000	      1.70530e-02	
      8065.26000	      1.59608e-02	
      8093.59000	      1.98328e-02	
      8122.11000	      2.14390e-02	
      8150.84000	      2.35583e-02	
      8179.75000	      2.61815e-02	
      8208.87000	      2.80162e-02	
      8238.18000	      2.80907e-02	
      8267.69000	      2.73703e-02	
      8297.40000	      2.88250e-02	
      8327.30000	      3.01525e-02	
      8357.40000	      2.85820e-02	
      8387.70000	      2.63723e-02	
      8418.19000	      2.58179e-02	
      8448.88000	      2.41368e-02	
      8479.77000	      2.33283e-02	
      8510.85000	      1.95082e-02	
      8542.13000	      2.10011e-02	
      8573.60000	      1.85977e-02	
      8605.27000	      2.22030e-02	
      8637.14000	      2.33290e-02	
      8669.19000	      2.07671e-02	
      8701.44000	      2.23356e-02	
      8733.88000	      2.28898e-02	
      8766.51000	      2.41922e-02	
      8799.34000	      2.54261e-02	
      8832.35000	      2.93169e-02	
      8865.55000	      2.99116e-02	
      8898.94000	      3.13633e-02	
      8932.51000	      3.06668e-02	
      8966.27000	      3.25264e-02	
      9000.22000	      3.63307e-02	
      9034.35000	      3.73136e-02	
      9068.66000	      4.15796e-02	
      9103.15000	      4.24736e-02	
      9137.82000	      4.57448e-02	
      9172.66000	      4.79256e-02	
      9207.69000	      4.76571e-02	
      9242.89000	      5.14486e-02	
      9278.26000	      5.07999e-02	
      9313.80000	      5.10534e-02	
      9349.52000	      4.88164e-02	
      9385.40000	      4.93573e-02	
      9421.46000	      5.09754e-02	
      9457.67000	      5.34925e-02	
      9494.06000	      5.70108e-02	
      9530.60000	      5.78870e-02	
      9567.31000	      6.27295e-02	
      9604.17000	      6.16345e-02	
      9641.20000	      6.53851e-02	
      9678.38000	      6.23887e-02	
      9715.71000	      6.28029e-02	
      9753.19000	      6.77311e-02	
      9790.83000	      6.68597e-02	
      9828.61000	      6.64767e-02	
      9866.54000	      6.51468e-02	
      9904.62000	      6.39684e-02	
      9942.84000	      6.10409e-02	
      9981.19000	      5.61146e-02	
     10019.70000	      5.38077e-02	
     10058.30000	      5.57158e-02	
     10097.10000	      5.70613e-02	
     10136.00000	      6.13844e-02	
     10175.00000	      6.47514e-02	
     10214.20000	      6.62417e-02	
     10253.50000	      6.40837e-02	
     10292.90000	      6.58838e-02	
     10332.40000	      6.61200e-02	
     10372.10000	      6.83550e-02	
     10411.90000	      7.01658e-02	
     10451.80000	      7.36952e-02	
     10491.80000	      7.39128e-02	
     10531.90000	      7.22555e-02	
     10572.10000	      7.36861e-02	
     10612.50000	      6.98936e-02	
     10652.90000	      7.06742e-02	
     10693.50000	      7.27129e-02	
     10734.10000	      7.68617e-02	
     10774.90000	      8.08108e-02	
     10815.70000	      8.31465e-02	
     10856.70000	      8.63695e-02	
     10897.70000	      8.74236e-02	
     10938.80000	      9.28966e-02	
     10980.00000	      9.37695e-02	
     11021.40000	      9.22116e-02	
     11062.70000	      9.17247e-02	
     11104.20000	      9.14077e-02	
     11145.80000	      9.13857e-02	
     11187.40000	      8.97637e-02	
     11229.10000	      9.01875e-02	
     11270.90000	      9.13884e-02	
     11312.80000	      9.08408e-02	
     11354.70000	      9.03123e-02	
     11396.70000	      8.97754e-02	
     11438.80000	      8.99584e-02	
     11480.90000	      8.85993e-02	
     11523.10000	      9.25278e-02	
     11565.40000	      9.64338e-02	
     11607.70000	      9.71624e-02	
     11650.00000	      9.60568e-02	
     11692.50000	      9.40374e-02	
     11734.90000	      8.90647e-02	
     11777.50000	      8.76675e-02	
     11820.00000	      8.51020e-02	
     11862.70000	      8.44544e-02	
     11905.30000	      8.47668e-02	
     11948.00000	      8.51453e-02	
     11990.80000	      8.45013e-02	
     12033.60000	      8.13885e-02	
     12076.40000	      8.11943e-02	
     12119.30000	      8.36404e-02	
     12162.10000	      8.72554e-02	
     12205.10000	      8.98136e-02	
     12248.00000	      9.14182e-02	
     12291.00000	      9.36836e-02	
     12334.00000	      9.50825e-02	
     12377.00000	      9.29903e-02	
     12420.10000	      8.98979e-02	
     12463.20000	      8.88009e-02	
     12506.20000	      8.57988e-02	
     12549.40000	      8.64587e-02	
     12592.50000	      8.97648e-02	
     12635.60000	      9.24259e-02	
     12678.80000	      9.62476e-02	
     12721.90000	      9.89755e-02	
     12765.10000	      9.76520e-02	
     12808.20000	      1.01616e-01	
     12851.40000	      1.01166e-01	
     12894.60000	      1.00523e-01	
     12937.80000	      1.00031e-01	
     12981.00000	      1.00268e-01	
     13024.10000	      9.94141e-02	
     13067.30000	      1.00555e-01	
     13110.50000	      9.93719e-02	
     13153.70000	      9.91837e-02	
     13196.80000	      9.85164e-02	
     13240.00000	      9.93555e-02	
     13283.10000	      9.44746e-02	
     13326.20000	      9.19522e-02	
     13369.30000	      8.48295e-02	
     13412.40000	      7.53903e-02	
     13455.50000	      6.92321e-02	
     13498.60000	      6.37204e-02	
     13541.60000	      6.28003e-02	
     13584.70000	      6.01410e-02	
     13627.70000	      5.72691e-02	
     13670.70000	      6.04966e-02	
     13713.60000	      5.84578e-02	
     13756.50000	      6.17402e-02	
     13799.50000	      6.67143e-02	
     13842.30000	      6.71591e-02	
     13885.20000	      6.29421e-02	
     13928.00000	      6.29330e-02	
     13970.80000	      6.71076e-02	
     14013.60000	      6.77065e-02	
     14056.30000	      6.02037e-02	
     14099.00000	      6.16924e-02	
     14141.60000	      6.03338e-02	
     14184.20000	      6.03991e-02	
     14226.80000	      5.78435e-02	
     14269.40000	      5.76724e-02	
     14311.90000	      5.68853e-02	
     14354.30000	      5.80377e-02	
     14396.70000	      5.65140e-02	
     14439.10000	      5.68977e-02	
     14481.50000	      5.73812e-02	
     14523.80000	      5.88957e-02	
     14566.00000	      5.87949e-02	
     14608.20000	      5.82019e-02	
     14650.40000	      6.01516e-02	
     14692.50000	      5.91715e-02	
     14734.50000	      5.70121e-02	
     14776.50000	      5.76501e-02	
     14818.50000	      5.79202e-02	
     14860.40000	      5.98925e-02	
     14902.30000	      5.79067e-02	
     14944.10000	      5.95525e-02	
     14985.80000	      6.09948e-02	
     15027.50000	      6.16504e-02	
     15069.20000	      6.06453e-02	
     15110.80000	      6.21254e-02	
     15152.30000	      6.20099e-02	
     15193.80000	      6.31412e-02	
     15235.20000	      6.40469e-02	
     15276.60000	      6.45548e-02	
     15317.90000	      6.54320e-02	
     15359.10000	      6.63127e-02	
     15400.30000	      6.67431e-02	
     15441.50000	      6.79682e-02	
     15482.50000	      6.81053e-02	
     15523.60000	      6.83653e-02	
     15564.50000	      6.88488e-02	
     15605.40000	      7.01907e-02	
     15646.20000	      7.00482e-02	
     15687.00000	      7.16675e-02	
     15727.70000	      7.01808e-02	
     15768.40000	      7.19221e-02	
     15809.00000	      7.13297e-02	
     15849.50000	      6.95159e-02	
     15890.00000	      7.04445e-02	
     15930.40000	      6.95410e-02	
     15970.70000	      6.96188e-02	
     16011.00000	      7.06260e-02	
     16051.20000	      7.14921e-02	
     16091.30000	      7.13596e-02	
     16131.40000	      7.01608e-02	
     16171.40000	      6.99369e-02	
     16211.40000	      6.88126e-02	
     16251.30000	      7.02594e-02	
     16291.10000	      7.00334e-02	
     16330.80000	      6.94067e-02	
     16370.50000	      6.91143e-02	
     16410.20000	      7.02188e-02	
     16449.70000	      7.10181e-02	
     16489.20000	      7.26967e-02	
     16528.70000	      7.10474e-02	
     16568.00000	      7.36166e-02	
     16607.30000	      7.35658e-02	
     16646.60000	      7.25678e-02	
     16685.70000	      7.15902e-02	
     16724.80000	      7.32075e-02	
     16763.90000	      7.09626e-02	
     16802.80000	      7.14878e-02	
     16841.70000	      7.16948e-02	
     16880.60000	      7.15896e-02	
     16919.30000	      7.18073e-02	
     16958.10000	      7.31896e-02	
     16996.70000	      7.14769e-02	
     17035.30000	      7.27818e-02	
     17073.80000	      7.21062e-02	
     17112.20000	      7.09586e-02	
     17150.60000	      6.86390e-02	
     17188.90000	      6.97065e-02	
     17227.20000	      6.72676e-02	
     17265.40000	      6.61613e-02	
     17303.50000	      6.51616e-02	
     17341.60000	      6.35890e-02	
     17379.60000	      6.24024e-02	
     17417.50000	      6.18228e-02	
     17455.40000	      6.11797e-02	
     17493.20000	      5.96703e-02	
     17530.90000	      5.85095e-02	
     17568.60000	      5.75706e-02	
     17606.20000	      5.64986e-02	
     17643.70000	      5.54177e-02	
     17681.20000	      5.48788e-02	
     17718.70000	      5.46909e-02	
     17756.00000	      4.72246e-02	
     17793.30000	      5.19222e-02	
     17830.60000	      5.02146e-02	
     17867.70000	      4.92205e-02	
     17904.90000	      4.79760e-02	
     17941.90000	      4.46926e-02	
     17978.90000	      4.73725e-02	
     18015.80000	      4.77517e-02	
     18052.70000	      4.27955e-02	
     18089.50000	      4.50491e-02	
     18126.30000	      4.38266e-02	
     18163.00000	      4.60843e-02	
     18199.60000	      4.57334e-02	
     18236.20000	      4.57581e-02	
     18272.70000	      4.40205e-02	
     18309.20000	      4.33540e-02	
     18345.60000	      4.54575e-02	
     18381.90000	      4.20216e-02	
     18418.20000	      4.22588e-02	
     18454.40000	      4.22478e-02	
     18490.60000	      4.16861e-02	
     18526.70000	      4.27549e-02	
     18562.80000	      4.12790e-02	
     18598.80000	      4.04655e-02	
     18634.70000	      3.88517e-02	
     18670.60000	      3.66608e-02	
     18706.40000	      3.87182e-02	
     18742.20000	      4.01439e-02	
     18777.90000	      3.94935e-02	
     18813.60000	      4.00591e-02	
     18849.20000	      4.14029e-02	
     18884.80000	      4.51116e-02	
     18920.30000	      4.13565e-02	
     18955.70000	      4.05094e-02	
     18991.10000	      3.98331e-02	
     19026.50000	      4.07152e-02	
     19061.80000	      4.27856e-02	
     19097.00000	      4.00702e-02	
     19132.20000	      4.43370e-02	
     19167.40000	      4.52649e-02	
     19202.40000	      4.32072e-02	
     19237.50000	      4.15235e-02	
     19272.50000	      4.36217e-02	
     19307.40000	      4.24043e-02	
     19342.30000	      4.13124e-02	
     19377.10000	      4.06289e-02	
     19411.90000	      3.99048e-02	
     19446.60000	      3.95931e-02	
     19481.30000	      3.75564e-02	
     19515.90000	      3.80729e-02	
     19550.50000	      3.77674e-02	
     19585.10000	      3.77507e-02	
     19619.60000	      3.87189e-02	
     19654.00000	      3.84912e-02	
     19688.40000	      3.94723e-02	
     19722.70000	      3.85879e-02	
     19757.00000	      3.83999e-02	
     19791.30000	      3.62143e-02	
     19825.50000	      3.45347e-02	
     19859.60000	      3.37936e-02	
     19893.70000	      3.44408e-02	
     19927.80000	      3.48891e-02	
     19961.80000	      3.35390e-02	
     19995.70000	      3.44364e-02	
     20029.70000	      3.52699e-02	
     20063.50000	      3.45555e-02	
     20097.30000	      3.30468e-02	
     20131.10000	      3.52211e-02	
     20164.90000	      3.86350e-02	
     20198.50000	      3.75192e-02	
     20232.20000	      3.78565e-02	
     20265.80000	      3.81819e-02	
     20299.30000	      3.70402e-02	
     20332.80000	      3.64654e-02	
     20366.30000	      3.58334e-02	
     20399.70000	      3.60821e-02	
     20433.00000	      3.67588e-02	
     20466.40000	      3.56311e-02	
     20499.60000	      3.62564e-02	
     20532.90000	      3.71583e-02	
     20566.00000	      3.62368e-02	
     20599.20000	      3.61547e-02	
     20632.30000	      3.58701e-02	
     20665.30000	      3.78302e-02	
     20698.30000	      3.69331e-02	
     20731.30000	      3.71544e-02	
     20764.20000	      3.72055e-02	
     20797.10000	      3.84682e-02	
     20829.90000	      3.77143e-02	
     20862.70000	      3.86898e-02	
     20895.40000	      3.87496e-02	
     20928.10000	      3.81073e-02	
     20960.70000	      3.89228e-02	
     20993.30000	      3.85603e-02	
     21025.90000	      3.84067e-02	
     21058.40000	      3.85803e-02	
     21090.80000	      3.92096e-02	
     21123.20000	      3.86480e-02	
     21155.60000	      3.96548e-02	
     21187.90000	      3.92471e-02	
     21220.20000	      4.02108e-02	
     21252.40000	      4.07096e-02	
     21284.60000	      4.03294e-02	
     21316.80000	      4.09140e-02	
     21348.80000	      4.03844e-02	
     21380.90000	      4.07883e-02	
     21412.90000	      4.04688e-02	
     21444.80000	      4.05925e-02	
     21476.80000	      4.10093e-02	
     21508.60000	      4.12140e-02	
     21540.40000	      4.02502e-02	
     21572.20000	      4.07225e-02	
     21603.90000	      4.05729e-02	
     21635.60000	      4.08687e-02	
     21667.20000	      4.12996e-02	
     21698.80000	      4.15055e-02	
     21730.30000	      4.14221e-02	
     21761.80000	      4.04991e-02	
     21793.20000	      4.12021e-02	
     21824.60000	      4.11990e-02	
     21855.90000	      4.09087e-02	
     21887.20000	      4.10018e-02	
     21918.50000	      4.02372e-02	
     21949.70000	      3.99286e-02	
     21980.80000	      4.11809e-02	
     22011.90000	      4.11431e-02	
     22042.90000	      4.14835e-02	
     22073.90000	      4.10686e-02	
     22104.90000	      4.05783e-02	
     22135.80000	      4.02657e-02	
     22166.60000	      4.00359e-02	
     22197.40000	      4.07790e-02	
     22228.20000	      4.11918e-02	
     22258.80000	      4.03608e-02	
     22289.50000	      4.10987e-02	
     22320.10000	      4.12736e-02	
     22350.60000	      4.15520e-02	
     22381.10000	      3.99656e-02	
     22411.60000	      4.00201e-02	
     22441.90000	      4.04275e-02	
     22472.30000	      4.06026e-02	
     22502.60000	      4.02978e-02	
     22532.80000	      4.06697e-02	
     22563.00000	      4.03448e-02	
     22593.10000	      4.03412e-02	
     22623.20000	      3.98697e-02	
     22653.20000	      3.97719e-02	
     22683.20000	      3.93820e-02	
     22713.10000	      3.94030e-02	
     22743.00000	      3.98450e-02	
     22772.80000	      3.89726e-02	
     22802.60000	      3.90824e-02	
     22832.30000	      3.91000e-02	
     22862.00000	      3.92461e-02	
     22891.60000	      3.88424e-02	
     22921.20000	      3.74174e-02	
     22950.70000	      3.71066e-02	
     22980.10000	      3.55901e-02	
     23009.50000	      3.31702e-02	
     23038.90000	      3.25639e-02	
     23068.20000	      3.31845e-02	
     23097.40000	      3.38594e-02	
     23126.60000	      3.38131e-02	
     23155.80000	      3.35191e-02	
     23184.90000	      3.35139e-02	
     23213.90000	      3.34077e-02	
     23242.90000	      3.21070e-02	
     23271.90000	      3.10207e-02	
     23300.80000	      3.03138e-02	
     23329.60000	      3.01551e-02	
     23358.40000	      3.05151e-02	
     23387.20000	      3.06094e-02	
     23415.90000	      3.08923e-02	
     23444.50000	      3.08545e-02	
     23473.10000	      3.07895e-02	
     23501.70000	      3.12540e-02	
     23530.20000	      3.05197e-02	
     23558.70000	      2.99838e-02	
     23587.10000	      2.89174e-02	
     23615.40000	      2.91145e-02	
     23643.80000	      2.85607e-02	
     23672.00000	      2.89352e-02	
     23700.30000	      2.87209e-02	
     23728.50000	      2.97475e-02	
     23756.60000	      2.87767e-02	
     23784.70000	      2.84173e-02	
     23812.80000	      2.94570e-02	
     23840.80000	      2.62949e-02	
     23868.80000	      2.88623e-02	
     23896.80000	      2.85633e-02	
     23924.70000	      2.61913e-02	
     23952.60000	      2.72404e-02	
     23980.40000	      2.71001e-02	
     24008.20000	      2.76178e-02	
     24036.00000	      2.76329e-02	
     24063.80000	      2.73681e-02	
     24091.50000	      2.72472e-02	
     24119.20000	      2.60883e-02	
     24146.80000	      2.56977e-02	
     24174.50000	      2.56379e-02	
     24202.10000	      2.59453e-02	
     24229.70000	      2.38771e-02	
     24257.20000	      2.42321e-02	
     24284.80000	      2.50512e-02	
     24312.30000	      2.39098e-02	
     24339.80000	      2.41801e-02	
     24367.30000	      2.35123e-02	
     24394.80000	      2.36151e-02	
     24422.20000	      2.24177e-02	
     24449.70000	      2.23128e-02	
     24477.10000	      2.28108e-02	
     24504.60000	      2.22875e-02	
     24532.00000	      2.20058e-02	
     24559.40000	      2.17943e-02	
     24586.90000	      2.20040e-02	
     24614.30000	      2.19710e-02	
     24641.80000	      2.06263e-02	
     24669.20000	      2.06182e-02	
     24696.70000	      2.13353e-02	
     24724.10000	      1.96744e-02	
     24751.60000	      2.05074e-02	
     24779.20000	      1.81813e-02	
     24806.70000	      2.06846e-02	
     24834.20000	      2.17943e-02	
     24861.80000	      1.90366e-02	
     24889.50000	      1.80837e-02	
     24917.10000	      2.05534e-02	
     24944.80000	      1.64607e-02	
     24972.50000	      2.06268e-02	
     25000.30000	      1.76439e-02	
     25028.10000	      1.92363e-02	
     25056.00000	      1.82088e-02	
     25083.90000	      1.81388e-02	
     25111.90000	      1.61481e-02	
     25139.90000	      1.29519e-02	
     25168.10000	      1.83838e-02	
     25196.20000	      1.88291e-02	
     25224.50000	      1.71629e-02	
     25252.80000	      1.67276e-02	
     25281.30000	      1.70927e-02	
     25309.80000	      1.95010e-02	
     25338.40000	      1.50839e-02	
     25367.10000	      2.11650e-02	
     25395.90000	      1.75382e-02	
     25424.80000	      2.52264e-02	
     25453.80000	      1.05659e-02	
     25483.00000	      1.69203e-02	
     25512.20000	      1.59249e-02	
     25541.60000	      2.13440e-02	
     25571.20000	      1.37340e-02	
     25600.80000	      1.49984e-02	
     25630.60000	      1.48776e-02	
     25660.60000	      2.27440e-02	
#time:0.015596
