# The SpeX Prism Spectral Libraries
# spty = Opt:L1.5,NIR:L1  (Spectral type)
#
#     WAVELENGTH	#            FLUX	
#     (ANGSTROM)	#   (ERG/CM2/S/A)	
################	#################	
      6483.31000	     -2.49775e-03	
      6505.60000	      1.34233e-02	
      6527.77000	     -4.35916e-03	
      6549.84000	     -7.82040e-04	
      6571.80000	      5.80341e-03	
      6593.67000	      5.71842e-03	
      6615.46000	      4.91032e-03	
      6637.18000	      1.30551e-03	
      6658.84000	      2.82425e-03	
      6680.45000	      5.24880e-04	
      6702.01000	     -4.43056e-03	
      6723.54000	      1.42663e-04	
      6745.04000	      6.47028e-03	
      6766.52000	      4.12981e-03	
      6787.99000	      2.76175e-03	
      6809.46000	      1.41820e-04	
      6830.93000	      1.06255e-02	
      6852.41000	      6.23478e-03	
      6873.92000	      9.87419e-03	
      6895.45000	      5.03771e-03	
      6917.01000	      6.85164e-03	
      6938.62000	      5.03182e-03	
      6960.27000	      3.14132e-03	
      6981.97000	      1.34424e-03	
      7003.74000	      5.02023e-03	
      7025.57000	      5.93341e-03	
      7047.47000	      4.72030e-03	
      7069.44000	      9.51576e-03	
      7091.50000	      1.05039e-02	
      7113.65000	      7.72718e-03	
      7135.89000	      5.68832e-03	
      7158.23000	      4.06520e-03	
      7180.67000	      5.47641e-03	
      7203.22000	      7.58678e-03	
      7225.88000	      9.13352e-03	
      7248.66000	      4.17947e-03	
      7271.56000	      7.09764e-03	
      7294.59000	      9.04481e-03	
      7317.74000	      1.02243e-02	
      7341.03000	      6.99124e-03	
      7364.45000	      9.16146e-03	
      7388.02000	      1.07380e-02	
      7411.73000	      9.20496e-03	
      7435.58000	      9.40803e-03	
      7459.59000	      7.86961e-03	
      7483.75000	      6.04076e-03	
      7508.07000	      1.05029e-02	
      7532.54000	      9.65786e-03	
      7557.18000	      1.01165e-02	
      7581.99000	      6.99881e-03	
      7606.96000	      5.01560e-03	
      7632.10000	      6.62872e-03	
      7657.41000	      5.16883e-03	
      7682.90000	      2.10598e-03	
      7708.56000	      3.77417e-03	
      7734.40000	      5.45075e-03	
      7760.42000	      8.35587e-03	
      7786.63000	      9.35505e-03	
      7813.01000	      9.34091e-03	
      7839.58000	      8.28401e-03	
      7866.34000	      1.10342e-02	
      7893.29000	      1.04499e-02	
      7920.42000	      1.10374e-02	
      7947.74000	      1.01498e-02	
      7975.26000	      1.26242e-02	
      8002.97000	      1.38028e-02	
      8030.87000	      1.71456e-02	
      8058.96000	      1.89308e-02	
      8087.25000	      2.00522e-02	
      8115.73000	      2.22623e-02	
      8144.41000	      2.44188e-02	
      8173.28000	      2.65017e-02	
      8202.36000	      2.62654e-02	
      8231.62000	      2.70743e-02	
      8261.09000	      2.79397e-02	
      8290.75000	      2.57973e-02	
      8320.61000	      2.82626e-02	
      8350.66000	      2.76452e-02	
      8380.92000	      2.70015e-02	
      8411.37000	      2.51676e-02	
      8442.01000	      2.38423e-02	
      8472.86000	      2.08884e-02	
      8503.90000	      2.16931e-02	
      8535.13000	      2.27217e-02	
      8566.56000	      2.25873e-02	
      8598.19000	      2.25695e-02	
      8630.01000	      2.10257e-02	
      8662.02000	      1.80379e-02	
      8694.23000	      1.96388e-02	
      8726.63000	      2.10299e-02	
      8759.22000	      2.28755e-02	
      8792.00000	      2.69295e-02	
      8824.97000	      2.85275e-02	
      8858.13000	      2.76146e-02	
      8891.47000	      2.84098e-02	
      8925.01000	      2.77984e-02	
      8958.72000	      3.40340e-02	
      8992.63000	      3.45035e-02	
      9026.72000	      3.65762e-02	
      9060.98000	      3.99160e-02	
      9095.43000	      4.25238e-02	
      9130.06000	      4.56180e-02	
      9164.87000	      5.07651e-02	
      9199.86000	      4.98491e-02	
      9235.02000	      5.00731e-02	
      9270.35000	      4.82756e-02	
      9305.86000	      4.71892e-02	
      9341.53000	      4.88039e-02	
      9377.38000	      5.10796e-02	
      9413.40000	      5.29804e-02	
      9449.58000	      5.74082e-02	
      9485.92000	      5.95498e-02	
      9522.43000	      6.05283e-02	
      9559.10000	      5.95850e-02	
      9595.93000	      5.91870e-02	
      9632.92000	      5.93217e-02	
      9670.07000	      6.14074e-02	
      9707.37000	      6.52160e-02	
      9744.82000	      6.56752e-02	
      9782.42000	      6.60606e-02	
      9820.17000	      6.86780e-02	
      9858.07000	      6.22678e-02	
      9896.11000	      5.34449e-02	
      9934.30000	      4.68195e-02	
      9972.62000	      4.64210e-02	
     10011.10000	      5.02104e-02	
     10049.70000	      5.34661e-02	
     10088.40000	      5.68116e-02	
     10127.30000	      5.87982e-02	
     10166.30000	      5.99531e-02	
     10205.40000	      6.02002e-02	
     10244.70000	      5.93076e-02	
     10284.10000	      6.08346e-02	
     10323.60000	      6.17345e-02	
     10363.20000	      6.66722e-02	
     10403.00000	      6.98797e-02	
     10442.90000	      7.08398e-02	
     10482.80000	      7.10526e-02	
     10522.90000	      6.91701e-02	
     10563.10000	      6.72028e-02	
     10603.50000	      6.78892e-02	
     10643.90000	      6.99322e-02	
     10684.40000	      7.39236e-02	
     10725.00000	      7.69583e-02	
     10765.80000	      8.00550e-02	
     10806.60000	      8.30726e-02	
     10847.50000	      8.69519e-02	
     10888.50000	      9.03717e-02	
     10929.60000	      9.07789e-02	
     10970.80000	      9.00276e-02	
     11012.10000	      9.05855e-02	
     11053.50000	      8.97914e-02	
     11095.00000	      8.76324e-02	
     11136.50000	      8.91168e-02	
     11178.10000	      9.00410e-02	
     11219.80000	      9.11152e-02	
     11261.60000	      9.08199e-02	
     11303.40000	      8.94187e-02	
     11345.30000	      8.45673e-02	
     11387.30000	      8.15195e-02	
     11429.40000	      8.58124e-02	
     11471.50000	      9.10154e-02	
     11513.70000	      9.52624e-02	
     11555.90000	      9.64904e-02	
     11598.20000	      9.39826e-02	
     11640.60000	      9.09525e-02	
     11683.00000	      8.72313e-02	
     11725.50000	      8.25630e-02	
     11768.00000	      8.37006e-02	
     11810.50000	      8.38441e-02	
     11853.10000	      8.67446e-02	
     11895.80000	      8.62245e-02	
     11938.50000	      8.20176e-02	
     11981.20000	      7.87834e-02	
     12024.00000	      7.88016e-02	
     12066.80000	      8.17399e-02	
     12109.70000	      8.60181e-02	
     12152.60000	      8.82545e-02	
     12195.50000	      9.14975e-02	
     12238.40000	      9.41113e-02	
     12281.40000	      9.41666e-02	
     12324.40000	      9.19036e-02	
     12367.40000	      8.73801e-02	
     12410.50000	      8.44136e-02	
     12453.50000	      8.19290e-02	
     12496.60000	      8.44536e-02	
     12539.70000	      8.82689e-02	
     12582.90000	      9.19435e-02	
     12626.00000	      9.67117e-02	
     12669.10000	      9.85381e-02	
     12712.30000	      1.01647e-01	
     12755.40000	      1.02731e-01	
     12798.60000	      1.01892e-01	
     12841.80000	      9.94174e-02	
     12885.00000	      9.92445e-02	
     12928.10000	      9.99577e-02	
     12971.30000	      9.94042e-02	
     13014.50000	      9.88920e-02	
     13057.70000	      9.86105e-02	
     13100.90000	      9.85248e-02	
     13144.00000	      9.96783e-02	
     13187.20000	      1.00131e-01	
     13230.30000	      9.92469e-02	
     13273.50000	      9.31019e-02	
     13316.60000	      8.32767e-02	
     13359.70000	      7.44028e-02	
     13402.80000	      6.84906e-02	
     13445.90000	      6.41081e-02	
     13489.00000	      6.04450e-02	
     13532.00000	      5.91065e-02	
     13575.10000	      5.85503e-02	
     13618.10000	      5.97740e-02	
     13661.10000	      6.22564e-02	
     13704.00000	      6.05712e-02	
     13747.00000	      5.99952e-02	
     13789.90000	      6.00241e-02	
     13832.80000	      6.16961e-02	
     13875.60000	      6.23347e-02	
     13918.50000	      6.14018e-02	
     13961.30000	      5.76891e-02	
     14004.00000	      5.59104e-02	
     14046.70000	      5.45781e-02	
     14089.40000	      5.51257e-02	
     14132.10000	      5.49497e-02	
     14174.70000	      5.44391e-02	
     14217.30000	      5.37397e-02	
     14259.90000	      5.33206e-02	
     14302.40000	      5.25645e-02	
     14344.90000	      5.24869e-02	
     14387.30000	      5.29406e-02	
     14429.70000	      5.44094e-02	
     14472.00000	      5.51664e-02	
     14514.30000	      5.62466e-02	
     14556.60000	      5.72923e-02	
     14598.80000	      5.68534e-02	
     14641.00000	      5.64026e-02	
     14683.10000	      5.60976e-02	
     14725.10000	      5.62496e-02	
     14767.20000	      5.64442e-02	
     14809.10000	      5.61769e-02	
     14851.10000	      5.71944e-02	
     14892.90000	      5.80791e-02	
     14934.70000	      5.93724e-02	
     14976.50000	      6.01748e-02	
     15018.20000	      6.05254e-02	
     15059.90000	      6.14199e-02	
     15101.50000	      6.25338e-02	
     15143.00000	      6.25709e-02	
     15184.50000	      6.44462e-02	
     15226.00000	      6.47590e-02	
     15267.30000	      6.58913e-02	
     15308.70000	      6.68223e-02	
     15349.90000	      6.78846e-02	
     15391.10000	      6.80445e-02	
     15432.30000	      6.88979e-02	
     15473.40000	      6.88184e-02	
     15514.40000	      7.07751e-02	
     15555.40000	      7.03229e-02	
     15596.30000	      7.14959e-02	
     15637.10000	      7.16226e-02	
     15677.90000	      7.15881e-02	
     15718.70000	      7.16917e-02	
     15759.30000	      7.21759e-02	
     15799.90000	      7.14281e-02	
     15840.50000	      6.98113e-02	
     15880.90000	      6.92974e-02	
     15921.40000	      6.90080e-02	
     15961.70000	      7.11764e-02	
     16002.00000	      7.19566e-02	
     16042.20000	      7.18876e-02	
     16082.40000	      7.06860e-02	
     16122.50000	      6.97206e-02	
     16162.50000	      6.93600e-02	
     16202.50000	      7.08247e-02	
     16242.40000	      7.03337e-02	
     16282.20000	      6.93125e-02	
     16322.00000	      7.00854e-02	
     16361.70000	      7.09265e-02	
     16401.30000	      7.13806e-02	
     16440.90000	      7.29256e-02	
     16480.40000	      7.42925e-02	
     16519.90000	      7.47274e-02	
     16559.20000	      7.33470e-02	
     16598.60000	      7.39651e-02	
     16637.80000	      7.39035e-02	
     16677.00000	      7.34449e-02	
     16716.10000	      7.38069e-02	
     16755.20000	      7.40693e-02	
     16794.10000	      7.39520e-02	
     16833.10000	      7.43113e-02	
     16871.90000	      7.41540e-02	
     16910.70000	      7.36426e-02	
     16949.40000	      7.36740e-02	
     16988.10000	      7.29909e-02	
     17026.70000	      7.28497e-02	
     17065.20000	      7.25083e-02	
     17103.70000	      7.18597e-02	
     17142.10000	      7.01705e-02	
     17180.40000	      6.90174e-02	
     17218.70000	      6.71671e-02	
     17256.90000	      6.66589e-02	
     17295.00000	      6.64339e-02	
     17333.10000	      6.50208e-02	
     17371.10000	      6.26797e-02	
     17409.00000	      6.21473e-02	
     17446.90000	      6.12200e-02	
     17484.70000	      6.02087e-02	
     17522.50000	      5.87964e-02	
     17560.20000	      5.72579e-02	
     17597.80000	      5.60284e-02	
     17635.40000	      5.57302e-02	
     17672.90000	      5.45783e-02	
     17710.30000	      5.27680e-02	
     17747.70000	      5.18165e-02	
     17785.00000	      5.11027e-02	
     17822.30000	      4.91838e-02	
     17859.40000	      4.82641e-02	
     17896.60000	      4.78467e-02	
     17933.60000	      4.71438e-02	
     17970.70000	      4.68147e-02	
     18007.60000	      4.59001e-02	
     18044.50000	      4.50221e-02	
     18081.30000	      4.49162e-02	
     18118.10000	      4.50618e-02	
     18154.80000	      4.45533e-02	
     18191.40000	      4.44520e-02	
     18228.00000	      4.43656e-02	
     18264.60000	      4.40612e-02	
     18301.00000	      4.37997e-02	
     18337.40000	      4.29278e-02	
     18373.80000	      4.29952e-02	
     18410.10000	      4.17172e-02	
     18446.30000	      4.10284e-02	
     18482.50000	      4.13054e-02	
     18518.60000	      4.06116e-02	
     18554.70000	      3.86563e-02	
     18590.70000	      3.75175e-02	
     18626.70000	      3.73470e-02	
     18662.60000	      3.84419e-02	
     18698.40000	      3.88928e-02	
     18734.20000	      4.03563e-02	
     18770.00000	      3.96579e-02	
     18805.60000	      4.01681e-02	
     18841.30000	      4.00694e-02	
     18876.80000	      4.04217e-02	
     18912.40000	      4.00539e-02	
     18947.80000	      3.99695e-02	
     18983.20000	      4.08727e-02	
     19018.60000	      4.16283e-02	
     19053.90000	      4.22630e-02	
     19089.20000	      4.32683e-02	
     19124.40000	      4.22160e-02	
     19159.50000	      4.19416e-02	
     19194.60000	      4.16385e-02	
     19229.70000	      4.12194e-02	
     19264.70000	      3.99479e-02	
     19299.60000	      3.97481e-02	
     19334.50000	      3.90754e-02	
     19369.30000	      3.91904e-02	
     19404.10000	      3.80926e-02	
     19438.90000	      3.68767e-02	
     19473.60000	      3.61694e-02	
     19508.20000	      3.56801e-02	
     19542.80000	      3.75428e-02	
     19577.40000	      3.84280e-02	
     19611.90000	      3.85461e-02	
     19646.30000	      3.87527e-02	
     19680.70000	      3.82889e-02	
     19715.10000	      3.68241e-02	
     19749.40000	      3.48221e-02	
     19783.60000	      3.39612e-02	
     19817.80000	      3.37210e-02	
     19852.00000	      3.40778e-02	
     19886.10000	      3.42639e-02	
     19920.20000	      3.48647e-02	
     19954.20000	      3.50789e-02	
     19988.20000	      3.55001e-02	
     20022.10000	      3.60947e-02	
     20056.00000	      3.61935e-02	
     20089.80000	      3.64378e-02	
     20123.60000	      3.61125e-02	
     20157.30000	      3.63696e-02	
     20191.00000	      3.66848e-02	
     20224.70000	      3.65285e-02	
     20258.30000	      3.61117e-02	
     20291.80000	      3.61885e-02	
     20325.30000	      3.66540e-02	
     20358.80000	      3.72244e-02	
     20392.20000	      3.71533e-02	
     20425.60000	      3.78158e-02	
     20458.90000	      3.71781e-02	
     20492.20000	      3.67159e-02	
     20525.50000	      3.72566e-02	
     20558.60000	      3.81251e-02	
     20591.80000	      3.83440e-02	
     20624.90000	      3.77247e-02	
     20658.00000	      3.86800e-02	
     20691.00000	      3.87146e-02	
     20723.90000	      3.90005e-02	
     20756.90000	      3.90647e-02	
     20789.70000	      3.92093e-02	
     20822.60000	      3.96494e-02	
     20855.30000	      3.96713e-02	
     20888.10000	      4.05577e-02	
     20920.80000	      4.01771e-02	
     20953.40000	      4.06790e-02	
     20986.00000	      4.05889e-02	
     21018.60000	      4.10331e-02	
     21051.10000	      4.10628e-02	
     21083.60000	      4.17358e-02	
     21116.00000	      4.15807e-02	
     21148.40000	      4.17098e-02	
     21180.70000	      4.21733e-02	
     21213.00000	      4.18718e-02	
     21245.20000	      4.24793e-02	
     21277.40000	      4.25282e-02	
     21309.60000	      4.26159e-02	
     21341.70000	      4.30705e-02	
     21373.70000	      4.33023e-02	
     21405.80000	      4.32795e-02	
     21437.70000	      4.36646e-02	
     21469.60000	      4.39264e-02	
     21501.50000	      4.37110e-02	
     21533.30000	      4.32801e-02	
     21565.10000	      4.37906e-02	
     21596.80000	      4.38155e-02	
     21628.50000	      4.43347e-02	
     21660.10000	      4.41937e-02	
     21691.70000	      4.42524e-02	
     21723.30000	      4.35634e-02	
     21754.80000	      4.35801e-02	
     21786.20000	      4.32946e-02	
     21817.60000	      4.34938e-02	
     21849.00000	      4.39119e-02	
     21880.30000	      4.36974e-02	
     21911.50000	      4.33220e-02	
     21942.70000	      4.32759e-02	
     21973.90000	      4.35855e-02	
     22005.00000	      4.30257e-02	
     22036.00000	      4.27950e-02	
     22067.00000	      4.15447e-02	
     22098.00000	      4.23128e-02	
     22128.90000	      4.27485e-02	
     22159.70000	      4.26268e-02	
     22190.50000	      4.29675e-02	
     22221.30000	      4.31228e-02	
     22252.00000	      4.29338e-02	
     22282.70000	      4.28834e-02	
     22313.30000	      4.25169e-02	
     22343.80000	      4.25736e-02	
     22374.30000	      4.25285e-02	
     22404.80000	      4.24727e-02	
     22435.20000	      4.22338e-02	
     22465.50000	      4.20670e-02	
     22495.80000	      4.23501e-02	
     22526.10000	      4.22801e-02	
     22556.30000	      4.18100e-02	
     22586.40000	      4.14507e-02	
     22616.50000	      4.08916e-02	
     22646.50000	      4.09514e-02	
     22676.50000	      4.09304e-02	
     22706.50000	      4.05510e-02	
     22736.40000	      4.02079e-02	
     22766.20000	      4.06467e-02	
     22796.00000	      4.02874e-02	
     22825.70000	      4.01250e-02	
     22855.40000	      4.05080e-02	
     22885.00000	      4.04400e-02	
     22914.60000	      3.84416e-02	
     22944.10000	      3.49639e-02	
     22973.60000	      3.27491e-02	
     23003.00000	      3.25567e-02	
     23032.30000	      3.42198e-02	
     23061.70000	      3.42153e-02	
     23090.90000	      3.47073e-02	
     23120.10000	      3.36161e-02	
     23149.30000	      3.41396e-02	
     23178.40000	      3.34950e-02	
     23207.50000	      3.23997e-02	
     23236.50000	      3.08407e-02	
     23265.40000	      3.01469e-02	
     23294.30000	      3.00156e-02	
     23323.20000	      3.07279e-02	
     23352.00000	      3.12804e-02	
     23380.80000	      3.08924e-02	
     23409.50000	      3.07900e-02	
     23438.10000	      3.09646e-02	
     23466.70000	      3.19178e-02	
     23495.30000	      3.11234e-02	
     23523.80000	      2.97113e-02	
     23552.30000	      2.91866e-02	
     23580.70000	      2.87705e-02	
     23609.10000	      2.92890e-02	
     23637.40000	      2.89875e-02	
     23665.70000	      2.90438e-02	
     23694.00000	      2.90097e-02	
     23722.20000	      2.95605e-02	
     23750.40000	      2.96491e-02	
     23778.50000	      2.87879e-02	
     23806.60000	      2.83263e-02	
     23834.60000	      2.71418e-02	
     23862.60000	      2.70803e-02	
     23890.60000	      2.76230e-02	
     23918.50000	      2.74167e-02	
     23946.40000	      2.70743e-02	
     23974.20000	      2.69892e-02	
     24002.00000	      2.68400e-02	
     24029.80000	      2.63734e-02	
     24057.60000	      2.52483e-02	
     24085.30000	      2.51861e-02	
     24113.00000	      2.44445e-02	
     24140.70000	      2.44946e-02	
     24168.30000	      2.43175e-02	
     24195.90000	      2.39491e-02	
     24223.50000	      2.41094e-02	
     24251.10000	      2.36734e-02	
     24278.60000	      2.35325e-02	
     24306.10000	      2.33426e-02	
     24333.60000	      2.31520e-02	
     24361.10000	      2.23219e-02	
     24388.60000	      2.26465e-02	
     24416.10000	      2.17926e-02	
     24443.50000	      2.16373e-02	
     24471.00000	      2.18004e-02	
     24498.40000	      2.11052e-02	
     24525.90000	      2.04750e-02	
     24553.30000	      2.06203e-02	
     24580.70000	      2.11588e-02	
     24608.20000	      2.09749e-02	
     24635.60000	      1.97042e-02	
     24663.10000	      2.03173e-02	
     24690.50000	      1.96374e-02	
     24718.00000	      1.89591e-02	
     24745.50000	      1.92662e-02	
     24773.00000	      1.87610e-02	
     24800.50000	      1.88474e-02	
     24828.10000	      1.96140e-02	
     24855.70000	      1.89859e-02	
     24883.30000	      1.76971e-02	
     24910.90000	      1.75689e-02	
     24938.60000	      1.77310e-02	
     24966.30000	      1.75068e-02	
     24994.10000	      1.78953e-02	
     25021.90000	      1.75557e-02	
     25049.80000	      1.72744e-02	
     25077.70000	      1.69360e-02	
     25105.60000	      1.68640e-02	
     25133.70000	      1.72685e-02	
     25161.80000	      1.57396e-02	
     25189.90000	      1.75578e-02	
     25218.20000	      1.70505e-02	
     25246.50000	      1.63347e-02	
     25274.90000	      1.57173e-02	
     25303.40000	      1.59064e-02	
     25332.00000	      1.57422e-02	
     25360.70000	      1.58249e-02	
     25389.40000	      1.57216e-02	
     25418.30000	      1.56909e-02	
     25447.30000	      1.46798e-02	
     25476.40000	      1.68475e-02	
     25505.70000	      1.40968e-02	
     25535.10000	      1.58454e-02	
     25564.60000	      1.60083e-02	
#time:0.016613
