# The SpeX Prism Spectral Libraries
# spty = Opt:L7,NIR:L5.5  (Spectral type)
#
#     WAVELENGTH	#            FLUX	
#     (ANGSTROM)	#   (ERG/CM2/S/A)	
################	#################	
      6627.97000	      2.45718e-01	
      6649.65000	      4.06718e-03	
      6671.28000	      1.23311e-01	
      6692.86000	      2.85162e-03	
      6714.40000	      4.76486e-02	
      6735.91000	      2.43350e-02	
      6757.40000	      9.45352e-02	
      6778.87000	     -1.62341e-03	
      6800.34000	     -3.67418e-02	
      6821.81000	     -1.63263e-02	
      6843.29000	      1.06226e-01	
      6864.78000	     -8.45696e-03	
      6886.30000	      7.20134e-02	
      6907.85000	     -3.47449e-03	
      6929.44000	      1.28788e-01	
      6951.07000	      6.16726e-02	
      6972.75000	      1.92268e-03	
      6994.49000	      8.19947e-02	
      7016.29000	      7.29751e-02	
      7038.16000	     -1.07573e-02	
      7060.10000	      3.80651e-02	
      7082.13000	      7.82173e-04	
      7104.24000	     -9.88724e-03	
      7126.44000	      2.02134e-02	
      7148.73000	      7.17702e-02	
      7171.13000	     -1.36889e-03	
      7193.63000	      2.98134e-02	
      7216.25000	      3.65427e-02	
      7238.98000	     -3.66527e-02	
      7261.82000	      2.29219e-02	
      7284.80000	      4.64363e-02	
      7307.89000	      3.18043e-02	
      7331.12000	     -1.29695e-02	
      7354.49000	     -3.73129e-03	
      7377.99000	      1.24889e-02	
      7401.64000	      5.13346e-02	
      7425.44000	      3.23341e-02	
      7449.38000	     -1.23379e-02	
      7473.47000	     -3.36003e-03	
      7497.72000	      1.18052e-02	
      7522.13000	      1.49939e-02	
      7546.70000	      2.75150e-02	
      7571.43000	     -2.81415e-02	
      7596.33000	     -5.91557e-02	
      7621.40000	     -2.28954e-02	
      7646.64000	     -1.39331e-02	
      7672.06000	      3.80526e-02	
      7697.64000	      2.02227e-02	
      7723.41000	      3.31605e-02	
      7749.35000	     -2.99741e-03	
      7775.48000	      1.41929e-04	
      7801.79000	     -1.21140e-02	
      7828.28000	     -1.19132e-02	
      7854.96000	     -1.12289e-02	
      7881.82000	      4.25621e-02	
      7908.88000	      3.11375e-02	
      7936.12000	      1.46397e-02	
      7963.55000	      1.81104e-02	
      7991.18000	      1.65339e-02	
      8019.00000	      2.78165e-02	
      8047.01000	      3.40298e-02	
      8075.21000	      1.49727e-02	
      8103.61000	      8.08749e-03	
      8132.21000	      1.72479e-02	
      8161.00000	     -6.30897e-04	
      8189.99000	     -3.40703e-03	
      8219.17000	      3.03979e-02	
      8248.55000	      1.66100e-02	
      8278.13000	      1.79214e-02	
      8307.91000	     -1.72488e-04	
      8337.88000	      1.84751e-02	
      8368.05000	      2.34929e-02	
      8398.42000	      1.47598e-02	
      8428.98000	      3.82109e-02	
      8459.74000	      1.35346e-02	
      8490.70000	      3.65657e-02	
      8521.85000	      2.18135e-02	
      8553.20000	      1.81313e-02	
      8584.74000	      1.52347e-02	
      8616.48000	      3.60476e-02	
      8648.41000	      2.38295e-02	
      8680.53000	      2.09432e-02	
      8712.85000	      1.46207e-02	
      8745.36000	      1.81046e-02	
      8778.06000	      2.84289e-02	
      8810.95000	      2.27290e-02	
      8844.03000	      3.50430e-02	
      8877.29000	      2.74452e-02	
      8910.75000	      2.65418e-02	
      8944.39000	      2.72906e-02	
      8978.21000	      2.37081e-02	
      9012.22000	      3.17988e-02	
      9046.41000	      3.63520e-02	
      9080.79000	      2.35497e-02	
      9115.34000	      5.06563e-02	
      9150.07000	      4.43343e-02	
      9184.98000	      4.08701e-02	
      9220.07000	      3.28802e-02	
      9255.33000	      3.91834e-02	
      9290.76000	      3.07592e-02	
      9326.37000	      3.17836e-02	
      9362.14000	      3.52468e-02	
      9398.09000	      3.51812e-02	
      9434.20000	      4.48971e-02	
      9470.47000	      4.44660e-02	
      9506.91000	      4.72483e-02	
      9543.52000	      4.39518e-02	
      9580.28000	      4.42915e-02	
      9617.20000	      4.99859e-02	
      9654.28000	      5.58598e-02	
      9691.51000	      4.79929e-02	
      9728.90000	      5.35178e-02	
      9766.44000	      5.66640e-02	
      9804.12000	      6.96667e-02	
      9841.96000	      5.87607e-02	
      9879.94000	      5.40500e-02	
      9918.07000	      6.24498e-02	
      9956.33000	      4.26055e-02	
      9994.74000	      5.85164e-02	
     10033.30000	      5.36424e-02	
     10072.00000	      5.33660e-02	
     10110.80000	      5.22344e-02	
     10149.70000	      5.90180e-02	
     10188.80000	      5.36037e-02	
     10228.00000	      4.53491e-02	
     10267.40000	      5.10830e-02	
     10306.80000	      5.85412e-02	
     10346.40000	      6.22575e-02	
     10386.10000	      6.17227e-02	
     10425.90000	      5.95800e-02	
     10465.80000	      6.08639e-02	
     10505.90000	      6.63872e-02	
     10546.10000	      6.24224e-02	
     10586.30000	      7.08502e-02	
     10626.70000	      7.22859e-02	
     10667.20000	      6.97189e-02	
     10707.80000	      7.32139e-02	
     10748.50000	      6.98540e-02	
     10789.20000	      8.40865e-02	
     10830.10000	      7.66486e-02	
     10871.10000	      7.73360e-02	
     10912.20000	      7.51092e-02	
     10953.30000	      7.52944e-02	
     10994.60000	      7.52798e-02	
     11035.90000	      6.90639e-02	
     11077.40000	      7.04278e-02	
     11118.90000	      6.67992e-02	
     11160.40000	      6.69688e-02	
     11202.10000	      6.84243e-02	
     11243.80000	      7.13837e-02	
     11285.70000	      7.61726e-02	
     11327.50000	      7.32223e-02	
     11369.50000	      6.11406e-02	
     11411.50000	      7.15820e-02	
     11453.60000	      7.19141e-02	
     11495.80000	      7.33443e-02	
     11538.00000	      7.23690e-02	
     11580.30000	      7.24866e-02	
     11622.60000	      7.23693e-02	
     11665.00000	      7.64770e-02	
     11707.40000	      6.90840e-02	
     11749.90000	      7.05871e-02	
     11792.50000	      7.37958e-02	
     11835.00000	      7.46295e-02	
     11877.70000	      7.71456e-02	
     11920.40000	      8.30215e-02	
     11963.10000	      7.80503e-02	
     12005.90000	      8.26623e-02	
     12048.70000	      7.57242e-02	
     12091.50000	      8.24609e-02	
     12134.40000	      8.43945e-02	
     12177.30000	      8.75293e-02	
     12220.20000	      8.99094e-02	
     12263.20000	      9.23683e-02	
     12306.10000	      9.32088e-02	
     12349.20000	      9.30996e-02	
     12392.20000	      8.99962e-02	
     12435.30000	      8.59504e-02	
     12478.30000	      8.60985e-02	
     12521.40000	      8.67016e-02	
     12564.50000	      9.18504e-02	
     12607.70000	      9.67307e-02	
     12650.80000	      9.84376e-02	
     12694.00000	      1.00294e-01	
     12737.10000	      1.03591e-01	
     12780.30000	      1.02667e-01	
     12823.50000	      9.96235e-02	
     12866.60000	      9.71498e-02	
     12909.80000	      1.01425e-01	
     12953.00000	      9.65956e-02	
     12996.20000	      9.92172e-02	
     13039.40000	      9.91984e-02	
     13082.50000	      1.00242e-01	
     13125.70000	      9.97858e-02	
     13168.90000	      1.00505e-01	
     13212.00000	      9.73533e-02	
     13255.20000	      9.07784e-02	
     13298.30000	      7.75069e-02	
     13341.40000	      6.20762e-02	
     13384.50000	      5.05238e-02	
     13427.60000	      4.50886e-02	
     13470.70000	      3.75465e-02	
     13513.80000	      3.86005e-02	
     13556.80000	      3.49406e-02	
     13599.80000	      3.98269e-02	
     13642.80000	      3.97182e-02	
     13685.80000	      3.95141e-02	
     13728.70000	      4.16341e-02	
     13771.70000	      3.95473e-02	
     13814.60000	      3.79251e-02	
     13857.40000	      4.61635e-02	
     13900.30000	      4.29940e-02	
     13943.10000	      4.27220e-02	
     13985.90000	      3.89545e-02	
     14028.60000	      4.24043e-02	
     14071.30000	      3.79580e-02	
     14114.00000	      3.96236e-02	
     14156.60000	      3.85848e-02	
     14199.20000	      3.95413e-02	
     14241.80000	      3.65599e-02	
     14284.30000	      3.59977e-02	
     14326.80000	      3.53793e-02	
     14369.30000	      3.59480e-02	
     14411.70000	      4.05266e-02	
     14454.00000	      4.01725e-02	
     14496.40000	      4.21726e-02	
     14538.60000	      4.51262e-02	
     14580.90000	      4.47571e-02	
     14623.10000	      4.87961e-02	
     14665.20000	      4.74735e-02	
     14707.30000	      5.01790e-02	
     14749.30000	      4.81045e-02	
     14791.30000	      5.22117e-02	
     14833.30000	      5.21800e-02	
     14875.20000	      5.27622e-02	
     14917.00000	      5.30148e-02	
     14958.80000	      5.49882e-02	
     15000.50000	      5.63826e-02	
     15042.20000	      5.98052e-02	
     15083.80000	      6.16987e-02	
     15125.40000	      6.19328e-02	
     15166.90000	      6.41136e-02	
     15208.40000	      6.54153e-02	
     15249.80000	      6.52744e-02	
     15291.10000	      6.94234e-02	
     15332.40000	      6.96230e-02	
     15373.60000	      7.76856e-02	
     15414.80000	      7.56218e-02	
     15455.90000	      7.37446e-02	
     15497.00000	      7.87725e-02	
     15538.00000	      7.61770e-02	
     15578.90000	      8.12094e-02	
     15619.80000	      7.98369e-02	
     15660.60000	      8.08708e-02	
     15701.40000	      8.24295e-02	
     15742.10000	      8.48094e-02	
     15782.70000	      8.57278e-02	
     15823.30000	      8.52060e-02	
     15863.80000	      8.39587e-02	
     15904.20000	      8.56024e-02	
     15944.60000	      8.42325e-02	
     15984.90000	      8.39663e-02	
     16025.10000	      8.43778e-02	
     16065.30000	      8.57529e-02	
     16105.50000	      8.74903e-02	
     16145.50000	      8.65756e-02	
     16185.50000	      8.61160e-02	
     16225.40000	      8.30699e-02	
     16265.30000	      8.46435e-02	
     16305.10000	      8.59705e-02	
     16344.80000	      8.34796e-02	
     16384.50000	      8.48588e-02	
     16424.10000	      8.40538e-02	
     16463.60000	      8.73132e-02	
     16503.10000	      8.91416e-02	
     16542.50000	      8.71308e-02	
     16581.90000	      8.93503e-02	
     16621.10000	      8.71969e-02	
     16660.40000	      8.62234e-02	
     16699.50000	      8.65639e-02	
     16738.60000	      8.75768e-02	
     16777.60000	      8.35130e-02	
     16816.50000	      8.73383e-02	
     16855.40000	      8.64931e-02	
     16894.20000	      8.51843e-02	
     16933.00000	      8.46937e-02	
     16971.70000	      8.74710e-02	
     17010.30000	      8.64055e-02	
     17048.90000	      8.25868e-02	
     17087.30000	      8.20577e-02	
     17125.80000	      7.50491e-02	
     17164.10000	      7.88161e-02	
     17202.40000	      7.73486e-02	
     17240.70000	      7.61564e-02	
     17278.80000	      7.42339e-02	
     17316.90000	      7.06799e-02	
     17355.00000	      6.58500e-02	
     17392.90000	      6.71347e-02	
     17430.80000	      6.36885e-02	
     17468.70000	      6.18810e-02	
     17506.50000	      5.83688e-02	
     17544.20000	      5.78345e-02	
     17581.80000	      5.56544e-02	
     17619.40000	      5.40197e-02	
     17657.00000	      5.14819e-02	
     17694.40000	      5.16523e-02	
     17731.80000	      5.05280e-02	
     17769.20000	      4.79375e-02	
     17806.40000	      4.54134e-02	
     17843.70000	      4.60943e-02	
     17880.80000	      4.24921e-02	
     17917.90000	      4.13689e-02	
     17955.00000	      4.14703e-02	
     17991.90000	      4.12905e-02	
     18028.80000	      3.87486e-02	
     18065.70000	      3.82674e-02	
     18102.50000	      4.00168e-02	
     18139.20000	      4.04649e-02	
     18175.90000	      3.70203e-02	
     18212.50000	      4.10371e-02	
     18249.10000	      4.10402e-02	
     18285.60000	      4.35369e-02	
     18322.00000	      3.82013e-02	
     18358.40000	      3.77184e-02	
     18394.70000	      4.21031e-02	
     18431.00000	      3.29280e-02	
     18467.20000	      3.43253e-02	
     18503.30000	      3.39888e-02	
     18539.40000	      3.43054e-02	
     18575.40000	      3.06923e-02	
     18611.40000	      3.42712e-02	
     18647.40000	      3.21079e-02	
     18683.20000	      3.02236e-02	
     18719.00000	      3.75086e-02	
     18754.80000	      3.25196e-02	
     18790.50000	      3.11004e-02	
     18826.20000	      3.74556e-02	
     18861.70000	      3.86386e-02	
     18897.30000	      3.75951e-02	
     18932.80000	      3.87295e-02	
     18968.20000	      3.77897e-02	
     19003.60000	      3.89244e-02	
     19038.90000	      4.45211e-02	
     19074.20000	      4.52334e-02	
     19109.40000	      4.39322e-02	
     19144.60000	      4.34029e-02	
     19179.70000	      4.49603e-02	
     19214.80000	      3.98768e-02	
     19249.80000	      4.31628e-02	
     19284.80000	      3.58558e-02	
     19319.70000	      3.71779e-02	
     19354.60000	      3.57092e-02	
     19389.40000	      3.64183e-02	
     19424.10000	      3.43522e-02	
     19458.90000	      3.44400e-02	
     19493.50000	      3.48567e-02	
     19528.10000	      3.49280e-02	
     19562.70000	      3.20478e-02	
     19597.20000	      3.38527e-02	
     19631.70000	      3.47985e-02	
     19666.10000	      3.39504e-02	
     19700.50000	      3.57934e-02	
     19734.80000	      3.24849e-02	
     19769.10000	      3.29727e-02	
     19803.30000	      3.55776e-02	
     19837.50000	      3.49220e-02	
     19871.60000	      3.64168e-02	
     19905.70000	      3.83366e-02	
     19939.80000	      3.90823e-02	
     19973.70000	      3.86739e-02	
     20007.70000	      3.36700e-02	
     20041.60000	      3.66112e-02	
     20075.40000	      4.19743e-02	
     20109.30000	      3.73856e-02	
     20143.00000	      3.80785e-02	
     20176.70000	      3.92121e-02	
     20210.40000	      4.09477e-02	
     20244.00000	      4.15978e-02	
     20277.60000	      4.36605e-02	
     20311.10000	      4.47103e-02	
     20344.60000	      4.32459e-02	
     20378.00000	      4.71707e-02	
     20411.40000	      4.46821e-02	
     20444.80000	      4.55174e-02	
     20478.10000	      4.72133e-02	
     20511.30000	      4.73787e-02	
     20544.60000	      4.82960e-02	
     20577.70000	      4.62905e-02	
     20610.80000	      4.97622e-02	
     20643.90000	      4.93706e-02	
     20677.00000	      5.24878e-02	
     20709.90000	      5.15825e-02	
     20742.90000	      5.17688e-02	
     20775.80000	      4.92462e-02	
     20808.60000	      5.06720e-02	
     20841.40000	      5.09693e-02	
     20874.20000	      5.00295e-02	
     20906.90000	      5.31640e-02	
     20939.60000	      5.29756e-02	
     20972.20000	      5.18702e-02	
     21004.80000	      5.28789e-02	
     21037.30000	      5.20081e-02	
     21069.80000	      5.40560e-02	
     21102.20000	      5.36709e-02	
     21134.60000	      5.28285e-02	
     21167.00000	      5.28685e-02	
     21199.30000	      5.50822e-02	
     21231.60000	      5.38355e-02	
     21263.80000	      5.45069e-02	
     21295.90000	      5.44960e-02	
     21328.10000	      5.36842e-02	
     21360.10000	      5.47904e-02	
     21392.20000	      5.30328e-02	
     21424.20000	      5.49430e-02	
     21456.10000	      5.24032e-02	
     21488.00000	      5.22130e-02	
     21519.80000	      5.44176e-02	
     21551.60000	      5.16727e-02	
     21583.40000	      5.05696e-02	
     21615.10000	      5.36805e-02	
     21646.70000	      5.14733e-02	
     21678.30000	      5.15522e-02	
     21709.90000	      5.09738e-02	
     21741.40000	      5.19023e-02	
     21772.90000	      4.99801e-02	
     21804.30000	      5.02459e-02	
     21835.60000	      5.10788e-02	
     21867.00000	      4.91031e-02	
     21898.20000	      4.94717e-02	
     21929.50000	      4.85693e-02	
     21960.60000	      5.00745e-02	
     21991.80000	      4.94406e-02	
     22022.80000	      4.75380e-02	
     22053.90000	      4.84935e-02	
     22084.80000	      4.83266e-02	
     22115.80000	      4.78320e-02	
     22146.60000	      4.85134e-02	
     22177.50000	      4.77413e-02	
     22208.20000	      4.76940e-02	
     22239.00000	      4.71911e-02	
     22269.60000	      4.73089e-02	
     22300.30000	      4.66769e-02	
     22330.90000	      4.76679e-02	
     22361.40000	      4.50884e-02	
     22391.80000	      4.50842e-02	
     22422.30000	      4.67169e-02	
     22452.60000	      4.54800e-02	
     22483.00000	      4.55832e-02	
     22513.20000	      4.74678e-02	
     22543.40000	      4.49964e-02	
     22573.60000	      4.34502e-02	
     22603.70000	      4.49669e-02	
     22633.80000	      4.45752e-02	
     22663.80000	      4.40148e-02	
     22693.80000	      4.24357e-02	
     22723.70000	      4.39947e-02	
     22753.50000	      4.17488e-02	
     22783.30000	      4.22598e-02	
     22813.10000	      4.31001e-02	
     22842.80000	      4.31150e-02	
     22872.40000	      4.29039e-02	
     22902.00000	      4.17125e-02	
     22931.60000	      3.99358e-02	
     22961.10000	      3.70344e-02	
     22990.50000	      3.53492e-02	
     23019.90000	      3.46054e-02	
     23049.20000	      3.33006e-02	
     23078.50000	      3.27143e-02	
     23107.70000	      3.56371e-02	
     23136.90000	      3.45683e-02	
     23166.10000	      3.47488e-02	
     23195.10000	      3.38615e-02	
     23224.20000	      3.38239e-02	
     23253.10000	      3.18725e-02	
     23282.10000	      3.11239e-02	
     23310.90000	      3.20927e-02	
     23339.80000	      3.37262e-02	
     23368.60000	      3.24606e-02	
     23397.30000	      3.31164e-02	
     23426.00000	      3.35086e-02	
     23454.60000	      3.37035e-02	
     23483.20000	      3.32379e-02	
     23511.70000	      3.70268e-02	
     23540.20000	      3.35383e-02	
     23568.70000	      3.33928e-02	
     23597.10000	      3.21722e-02	
     23625.40000	      3.29651e-02	
     23653.70000	      3.21999e-02	
     23682.00000	      3.12203e-02	
     23710.20000	      3.10199e-02	
     23738.40000	      3.31305e-02	
     23766.50000	      3.21155e-02	
     23794.60000	      3.33056e-02	
     23822.70000	      3.12849e-02	
     23850.70000	      3.25270e-02	
     23878.70000	      3.15553e-02	
     23906.60000	      3.28332e-02	
     23934.50000	      3.11106e-02	
     23962.40000	      2.94322e-02	
     23990.20000	      3.28750e-02	
     24018.00000	      3.31342e-02	
     24045.80000	      3.23148e-02	
     24073.50000	      3.02868e-02	
     24101.20000	      3.28475e-02	
     24128.90000	      3.03263e-02	
     24156.60000	      3.03325e-02	
     24184.20000	      2.75262e-02	
     24211.80000	      3.12371e-02	
     24239.40000	      3.10889e-02	
     24266.90000	      3.16460e-02	
     24294.50000	      3.07508e-02	
     24322.00000	      2.68566e-02	
     24349.50000	      2.65148e-02	
     24377.00000	      2.74047e-02	
     24404.40000	      2.67085e-02	
     24431.90000	      2.63523e-02	
     24459.30000	      2.50102e-02	
     24486.80000	      2.69629e-02	
     24514.20000	      2.49605e-02	
     24541.70000	      2.90583e-02	
     24569.10000	      2.56174e-02	
     24596.50000	      2.70173e-02	
     24624.00000	      2.49710e-02	
     24651.40000	      2.41286e-02	
     24678.90000	      2.54817e-02	
     24706.40000	      1.24168e-02	
     24733.80000	      2.68613e-02	
     24761.30000	      2.09897e-02	
     24788.90000	      2.30278e-02	
     24816.40000	      2.33741e-02	
     24844.00000	      2.20753e-02	
     24871.60000	      1.67459e-02	
     24899.20000	      1.84232e-02	
     24926.90000	      1.83061e-02	
     24954.60000	      1.84140e-02	
     24982.30000	      2.13037e-02	
     25010.10000	      1.88974e-02	
     25037.90000	      1.89922e-02	
     25065.80000	      2.38158e-02	
     25093.80000	      1.43536e-02	
     25121.80000	      1.60561e-02	
     25149.80000	      2.10127e-02	
     25178.00000	      2.26220e-02	
     25206.20000	      1.99498e-02	
     25234.50000	      1.92327e-02	
     25262.80000	      2.31931e-02	
     25291.30000	      2.10045e-02	
     25319.80000	      2.05557e-02	
     25348.50000	      1.83756e-02	
     25377.20000	      2.44249e-02	
     25406.10000	      8.17944e-03	
     25435.00000	      1.54963e-02	
     25464.10000	      9.49070e-04	
     25493.30000	      4.26295e-02	
     25522.60000	      1.38972e-02	
     25552.00000	      4.89387e-02	
     25581.60000	      2.10149e-02	
     25611.30000	      1.75726e-02	
#time:0.015757
