# The SpeX Prism Spectral Libraries
# spty = Opt:L8,NIR:T0  (Spectral type)
#
#     WAVELENGTH	#            FLUX	
#     (ANGSTROM)	#   (ERG/CM2/S/A)	
################	#################	
      6488.73000	      1.70624e-02	
      6510.99000	      1.24665e-02	
      6533.13000	      4.84138e-02	
      6555.17000	      2.83702e-02	
      6577.11000	      4.08357e-03	
      6598.96000	      3.15072e-02	
      6620.73000	      1.64070e-02	
      6642.44000	      5.48668e-03	
      6664.08000	      1.12887e-02	
      6685.68000	      1.93902e-02	
      6707.23000	      2.06200e-03	
      6728.75000	     -4.73140e-03	
      6750.24000	      1.59187e-02	
      6771.72000	     -4.17864e-03	
      6793.19000	     -4.30462e-03	
      6814.66000	      1.71088e-02	
      6836.13000	     -5.19570e-03	
      6857.62000	     -5.19980e-04	
      6879.13000	     -9.00651e-03	
      6900.67000	      1.16370e-02	
      6922.25000	      1.77204e-02	
      6943.86000	      6.75666e-03	
      6965.53000	      6.25672e-03	
      6987.24000	      1.27471e-02	
      7009.02000	      2.20135e-02	
      7030.87000	      6.25340e-03	
      7052.79000	      2.92737e-03	
      7074.79000	     -1.09614e-03	
      7096.87000	     -8.26487e-04	
      7119.04000	      1.16618e-03	
      7141.30000	     -7.15271e-04	
      7163.66000	      5.61186e-03	
      7186.13000	     -4.86129e-04	
      7208.71000	      7.15639e-03	
      7231.40000	      2.04783e-03	
      7254.20000	      2.23877e-03	
      7277.13000	     -1.00863e-02	
      7300.19000	     -3.96399e-03	
      7323.38000	      2.37401e-03	
      7346.70000	     -4.81577e-04	
      7370.15000	      6.84106e-04	
      7393.75000	      4.09777e-03	
      7417.50000	     -3.64430e-03	
      7441.39000	     -3.43116e-03	
      7465.43000	      1.36222e-03	
      7489.63000	     -2.91383e-03	
      7513.99000	     -1.59979e-03	
      7538.50000	      4.32840e-03	
      7563.18000	     -3.71026e-03	
      7588.02000	      1.25827e-03	
      7613.04000	     -8.34590e-05	
      7638.22000	      1.80658e-03	
      7663.57000	     -6.44267e-03	
      7689.10000	     -1.66775e-03	
      7714.81000	      1.33592e-04	
      7740.69000	      7.65503e-04	
      7766.76000	      4.35125e-04	
      7793.01000	     -3.99072e-03	
      7819.44000	      3.55016e-03	
      7846.05000	      1.62418e-03	
      7872.86000	      4.25882e-03	
      7899.85000	     -8.11114e-04	
      7927.03000	      1.04293e-03	
      7954.40000	     -1.53768e-03	
      7981.96000	      2.59760e-03	
      8009.71000	      2.59542e-03	
      8037.66000	      8.96428e-03	
      8065.80000	      5.29011e-03	
      8094.14000	      5.00278e-03	
      8122.67000	      3.57593e-03	
      8151.39000	      1.15515e-02	
      8180.31000	      6.10475e-03	
      8209.43000	      1.08526e-02	
      8238.75000	      1.12996e-02	
      8268.26000	      5.21011e-03	
      8297.97000	      1.04354e-02	
      8327.88000	      1.10910e-02	
      8357.98000	      1.15523e-02	
      8388.28000	      1.50634e-02	
      8418.78000	      1.47934e-02	
      8449.47000	      1.42564e-02	
      8480.36000	      1.32760e-02	
      8511.45000	      1.70598e-02	
      8542.73000	      1.78337e-02	
      8574.21000	      1.73996e-02	
      8605.88000	      1.66456e-02	
      8637.75000	      1.33427e-02	
      8669.81000	      1.54282e-02	
      8702.06000	      1.48510e-02	
      8734.51000	      1.56514e-02	
      8767.15000	      1.83408e-02	
      8799.97000	      1.93705e-02	
      8832.99000	      2.09907e-02	
      8866.19000	      2.33778e-02	
      8899.59000	      2.35220e-02	
      8933.16000	      2.19632e-02	
      8966.93000	      2.22308e-02	
      9000.88000	      2.35341e-02	
      9035.01000	      2.50540e-02	
      9069.32000	      2.93452e-02	
      9103.81000	      3.04120e-02	
      9138.49000	      3.15101e-02	
      9173.34000	      3.20315e-02	
      9208.36000	      3.47518e-02	
      9243.57000	      2.98412e-02	
      9278.94000	      3.56470e-02	
      9314.49000	      3.42065e-02	
      9350.21000	      3.17126e-02	
      9386.10000	      3.59698e-02	
      9422.15000	      3.78981e-02	
      9458.37000	      3.85584e-02	
      9494.76000	      4.20331e-02	
      9531.31000	      3.94927e-02	
      9568.02000	      3.90147e-02	
      9604.89000	      3.98576e-02	
      9641.91000	      4.36586e-02	
      9679.09000	      4.46426e-02	
      9716.43000	      4.67959e-02	
      9753.92000	      4.94006e-02	
      9791.56000	      4.90610e-02	
      9829.34000	      4.93058e-02	
      9867.28000	      4.80095e-02	
      9905.35000	      4.63299e-02	
      9943.57000	      4.66473e-02	
      9981.94000	      4.60867e-02	
     10020.40000	      4.81866e-02	
     10059.10000	      5.04794e-02	
     10097.80000	      5.24285e-02	
     10136.70000	      5.31435e-02	
     10175.80000	      5.36865e-02	
     10214.90000	      5.47751e-02	
     10254.20000	      5.79341e-02	
     10293.70000	      6.05118e-02	
     10333.20000	      6.16190e-02	
     10372.90000	      6.29972e-02	
     10412.60000	      6.53573e-02	
     10452.50000	      6.60526e-02	
     10492.50000	      6.92655e-02	
     10532.70000	      6.81039e-02	
     10572.90000	      7.23287e-02	
     10613.20000	      6.92914e-02	
     10653.70000	      7.24116e-02	
     10694.20000	      7.49633e-02	
     10734.90000	      7.42312e-02	
     10775.60000	      7.46846e-02	
     10816.50000	      7.74534e-02	
     10857.40000	      7.62462e-02	
     10898.50000	      7.40488e-02	
     10939.60000	      7.16064e-02	
     10980.80000	      6.89873e-02	
     11022.20000	      6.71806e-02	
     11063.50000	      6.84065e-02	
     11105.00000	      6.46687e-02	
     11146.60000	      6.37008e-02	
     11188.20000	      6.16377e-02	
     11229.90000	      6.42485e-02	
     11271.70000	      6.18004e-02	
     11313.60000	      5.83756e-02	
     11355.50000	      5.85616e-02	
     11397.50000	      5.87035e-02	
     11439.60000	      6.08641e-02	
     11481.70000	      6.40221e-02	
     11523.90000	      6.41951e-02	
     11566.20000	      6.20625e-02	
     11608.50000	      6.16216e-02	
     11650.90000	      6.13833e-02	
     11693.30000	      6.01165e-02	
     11735.80000	      6.00470e-02	
     11778.30000	      6.24646e-02	
     11820.90000	      6.85194e-02	
     11863.50000	      7.23623e-02	
     11906.10000	      7.44747e-02	
     11948.90000	      7.57493e-02	
     11991.60000	      7.65591e-02	
     12034.40000	      7.76534e-02	
     12077.20000	      8.10782e-02	
     12120.10000	      8.41238e-02	
     12163.00000	      8.68802e-02	
     12205.90000	      8.73677e-02	
     12248.80000	      9.13822e-02	
     12291.80000	      9.12573e-02	
     12334.80000	      9.02682e-02	
     12377.90000	      9.03309e-02	
     12420.90000	      9.22728e-02	
     12464.00000	      8.97765e-02	
     12507.10000	      9.31189e-02	
     12550.20000	      9.68800e-02	
     12593.30000	      1.01151e-01	
     12636.40000	      1.00949e-01	
     12679.60000	      1.01359e-01	
     12722.70000	      9.99789e-02	
     12765.90000	      1.00543e-01	
     12809.10000	      9.66608e-02	
     12852.30000	      1.00798e-01	
     12895.40000	      9.87955e-02	
     12938.60000	      1.00481e-01	
     12981.80000	      9.92121e-02	
     13025.00000	      1.00071e-01	
     13068.20000	      9.83525e-02	
     13111.30000	      9.83774e-02	
     13154.50000	      9.64142e-02	
     13197.60000	      9.53697e-02	
     13240.80000	      8.65926e-02	
     13283.90000	      7.70565e-02	
     13327.10000	      5.97590e-02	
     13370.20000	      4.75415e-02	
     13413.30000	      3.90215e-02	
     13456.40000	      3.91127e-02	
     13499.40000	      3.75337e-02	
     13542.50000	      4.01853e-02	
     13585.50000	      3.38339e-02	
     13628.50000	      3.15237e-02	
     13671.50000	      2.54190e-02	
     13714.40000	      2.88337e-02	
     13757.40000	      3.58972e-02	
     13800.30000	      3.36700e-02	
     13843.20000	      3.44965e-02	
     13886.00000	      3.04152e-02	
     13928.80000	      3.16364e-02	
     13971.60000	      3.11003e-02	
     14014.40000	      2.77366e-02	
     14057.10000	      2.67563e-02	
     14099.80000	      2.78547e-02	
     14142.40000	      2.42542e-02	
     14185.10000	      2.58168e-02	
     14227.60000	      2.66007e-02	
     14270.20000	      2.81275e-02	
     14312.70000	      2.71943e-02	
     14355.10000	      2.91591e-02	
     14397.60000	      3.01785e-02	
     14439.90000	      2.94788e-02	
     14482.30000	      3.28262e-02	
     14524.60000	      3.47014e-02	
     14566.80000	      3.79112e-02	
     14609.00000	      4.00286e-02	
     14651.20000	      4.05539e-02	
     14693.30000	      3.82967e-02	
     14735.30000	      4.10719e-02	
     14777.30000	      3.97140e-02	
     14819.30000	      4.36972e-02	
     14861.20000	      4.23850e-02	
     14903.10000	      4.59468e-02	
     14944.90000	      4.64498e-02	
     14986.60000	      4.87827e-02	
     15028.30000	      5.00059e-02	
     15070.00000	      5.40446e-02	
     15111.60000	      5.39487e-02	
     15153.10000	      5.68181e-02	
     15194.60000	      5.84398e-02	
     15236.00000	      6.11325e-02	
     15277.40000	      6.26781e-02	
     15318.70000	      6.49335e-02	
     15359.90000	      6.48630e-02	
     15401.10000	      6.92044e-02	
     15442.30000	      7.04432e-02	
     15483.30000	      7.37856e-02	
     15524.30000	      7.41887e-02	
     15565.30000	      7.66783e-02	
     15606.20000	      7.52265e-02	
     15647.00000	      7.89632e-02	
     15687.80000	      7.97834e-02	
     15728.50000	      8.26243e-02	
     15769.20000	      8.01461e-02	
     15809.80000	      8.19150e-02	
     15850.30000	      8.17005e-02	
     15890.70000	      8.20906e-02	
     15931.10000	      8.30497e-02	
     15971.50000	      8.47103e-02	
     16011.70000	      8.32440e-02	
     16052.00000	      8.28202e-02	
     16092.10000	      8.22150e-02	
     16132.20000	      8.03114e-02	
     16172.20000	      7.83804e-02	
     16212.10000	      8.06922e-02	
     16252.00000	      7.77835e-02	
     16291.90000	      7.80498e-02	
     16331.60000	      7.65700e-02	
     16371.30000	      7.71830e-02	
     16410.90000	      7.60861e-02	
     16450.50000	      7.98648e-02	
     16490.00000	      7.96073e-02	
     16529.40000	      7.92544e-02	
     16568.80000	      7.88228e-02	
     16608.10000	      7.96062e-02	
     16647.30000	      7.62913e-02	
     16686.50000	      7.61726e-02	
     16725.60000	      7.35437e-02	
     16764.60000	      7.41571e-02	
     16803.60000	      7.43644e-02	
     16842.50000	      7.58617e-02	
     16881.30000	      7.58612e-02	
     16920.10000	      7.54752e-02	
     16958.80000	      7.37343e-02	
     16997.40000	      7.43452e-02	
     17036.00000	      7.34224e-02	
     17074.50000	      7.25639e-02	
     17113.00000	      6.89790e-02	
     17151.40000	      6.84375e-02	
     17189.70000	      6.79717e-02	
     17227.90000	      6.63511e-02	
     17266.10000	      6.34553e-02	
     17304.20000	      6.25967e-02	
     17342.30000	      5.92206e-02	
     17380.30000	      5.86574e-02	
     17418.20000	      5.62720e-02	
     17456.10000	      5.49259e-02	
     17493.90000	      5.24233e-02	
     17531.60000	      5.00991e-02	
     17569.30000	      4.84951e-02	
     17606.90000	      4.68243e-02	
     17644.50000	      4.58928e-02	
     17682.00000	      4.41211e-02	
     17719.40000	      4.14211e-02	
     17756.70000	      4.10344e-02	
     17794.00000	      3.89351e-02	
     17831.30000	      3.85153e-02	
     17868.50000	      3.64166e-02	
     17905.60000	      3.57426e-02	
     17942.60000	      3.62238e-02	
     17979.60000	      3.64772e-02	
     18016.60000	      3.42133e-02	
     18053.40000	      3.32396e-02	
     18090.20000	      3.40103e-02	
     18127.00000	      3.56090e-02	
     18163.70000	      3.52486e-02	
     18200.30000	      3.85687e-02	
     18236.90000	      3.87778e-02	
     18273.40000	      4.05151e-02	
     18309.90000	      4.48704e-02	
     18346.30000	      3.87948e-02	
     18382.60000	      3.09275e-02	
     18418.90000	      2.93562e-02	
     18455.10000	      2.97811e-02	
     18491.30000	      3.47880e-02	
     18527.40000	      2.90628e-02	
     18563.50000	      2.38442e-02	
     18599.50000	      2.80576e-02	
     18635.40000	      2.96432e-02	
     18671.30000	      3.27183e-02	
     18707.10000	      2.39566e-02	
     18742.90000	      1.90917e-02	
     18778.60000	      2.44010e-02	
     18814.30000	      2.82871e-02	
     18849.90000	      3.35710e-02	
     18885.50000	      3.16955e-02	
     18921.00000	      3.93591e-02	
     18956.40000	      3.59183e-02	
     18991.80000	      4.12700e-02	
     19027.20000	      3.59007e-02	
     19062.50000	      3.55788e-02	
     19097.70000	      3.57469e-02	
     19132.90000	      3.71529e-02	
     19168.00000	      3.20779e-02	
     19203.10000	      3.68916e-02	
     19238.20000	      3.37674e-02	
     19273.10000	      3.11470e-02	
     19308.10000	      3.10066e-02	
     19343.00000	      2.83870e-02	
     19377.80000	      2.67341e-02	
     19412.60000	      2.71125e-02	
     19447.30000	      2.63891e-02	
     19482.00000	      2.98272e-02	
     19516.60000	      2.96262e-02	
     19551.20000	      2.83300e-02	
     19585.70000	      2.54153e-02	
     19620.20000	      2.52878e-02	
     19654.70000	      2.62459e-02	
     19689.00000	      2.76201e-02	
     19723.40000	      2.73206e-02	
     19757.70000	      2.76473e-02	
     19791.90000	      2.88963e-02	
     19826.10000	      3.04404e-02	
     19860.30000	      3.01192e-02	
     19894.40000	      3.17294e-02	
     19928.40000	      3.27064e-02	
     19962.40000	      3.51245e-02	
     19996.40000	      3.77002e-02	
     20030.30000	      3.54888e-02	
     20064.20000	      3.34751e-02	
     20098.00000	      3.22669e-02	
     20131.80000	      3.18467e-02	
     20165.50000	      3.30820e-02	
     20199.20000	      3.33143e-02	
     20232.80000	      3.39124e-02	
     20266.40000	      3.47315e-02	
     20300.00000	      3.68644e-02	
     20333.50000	      3.74810e-02	
     20366.90000	      3.88653e-02	
     20400.30000	      3.89902e-02	
     20433.70000	      4.00773e-02	
     20467.00000	      4.25035e-02	
     20500.30000	      4.16699e-02	
     20533.50000	      4.19794e-02	
     20566.70000	      4.25087e-02	
     20599.80000	      4.24610e-02	
     20632.90000	      4.33034e-02	
     20666.00000	      4.29547e-02	
     20699.00000	      4.28122e-02	
     20731.90000	      4.20451e-02	
     20764.80000	      4.31632e-02	
     20797.70000	      4.37229e-02	
     20830.50000	      4.47006e-02	
     20863.30000	      4.40115e-02	
     20896.00000	      4.55997e-02	
     20928.70000	      4.49742e-02	
     20961.30000	      4.56808e-02	
     20993.90000	      4.48408e-02	
     21026.50000	      4.53782e-02	
     21059.00000	      4.56203e-02	
     21091.40000	      4.58184e-02	
     21123.90000	      4.49077e-02	
     21156.20000	      4.51383e-02	
     21188.50000	      4.59252e-02	
     21220.80000	      4.55227e-02	
     21253.10000	      4.57761e-02	
     21285.20000	      4.57353e-02	
     21317.40000	      4.60386e-02	
     21349.50000	      4.56402e-02	
     21381.50000	      4.47824e-02	
     21413.50000	      4.51658e-02	
     21445.50000	      4.41045e-02	
     21477.40000	      4.49286e-02	
     21509.20000	      4.42648e-02	
     21541.00000	      4.38604e-02	
     21572.80000	      4.38384e-02	
     21604.50000	      4.42407e-02	
     21636.20000	      4.36471e-02	
     21667.80000	      4.31319e-02	
     21699.40000	      4.40689e-02	
     21730.90000	      4.26046e-02	
     21762.40000	      4.19710e-02	
     21793.80000	      4.25017e-02	
     21825.20000	      4.19883e-02	
     21856.50000	      4.24499e-02	
     21887.80000	      4.18619e-02	
     21919.10000	      4.13797e-02	
     21950.30000	      4.00348e-02	
     21981.40000	      3.93156e-02	
     22012.50000	      3.84638e-02	
     22043.50000	      3.65413e-02	
     22074.50000	      3.70539e-02	
     22105.50000	      3.78234e-02	
     22136.40000	      3.80435e-02	
     22167.20000	      3.64012e-02	
     22198.00000	      3.68203e-02	
     22228.70000	      3.67544e-02	
     22259.40000	      3.68891e-02	
     22290.10000	      3.63059e-02	
     22320.70000	      3.59139e-02	
     22351.20000	      3.44539e-02	
     22381.70000	      3.68293e-02	
     22412.10000	      3.54094e-02	
     22442.50000	      3.46833e-02	
     22472.90000	      3.42993e-02	
     22503.20000	      3.38968e-02	
     22533.40000	      3.46483e-02	
     22563.60000	      3.38739e-02	
     22593.70000	      3.42572e-02	
     22623.80000	      3.39151e-02	
     22653.80000	      3.40908e-02	
     22683.80000	      3.28392e-02	
     22713.70000	      3.32410e-02	
     22743.60000	      3.27699e-02	
     22773.40000	      3.25696e-02	
     22803.20000	      3.29975e-02	
     22832.90000	      3.26927e-02	
     22862.60000	      3.13916e-02	
     22892.20000	      3.18578e-02	
     22921.70000	      3.00257e-02	
     22951.20000	      2.88426e-02	
     22980.70000	      2.73008e-02	
     23010.10000	      2.62012e-02	
     23039.50000	      2.56755e-02	
     23068.80000	      2.64611e-02	
     23098.00000	      2.60398e-02	
     23127.20000	      2.69579e-02	
     23156.40000	      2.72852e-02	
     23185.50000	      2.59607e-02	
     23214.50000	      2.42065e-02	
     23243.50000	      2.44510e-02	
     23272.40000	      2.46283e-02	
     23301.30000	      2.43861e-02	
     23330.20000	      2.52945e-02	
     23359.00000	      2.59021e-02	
     23387.70000	      2.56102e-02	
     23416.40000	      2.50766e-02	
     23445.10000	      2.57910e-02	
     23473.70000	      2.45440e-02	
     23502.20000	      2.46597e-02	
     23530.70000	      2.57747e-02	
     23559.20000	      2.46761e-02	
     23587.60000	      2.53345e-02	
     23616.00000	      2.63994e-02	
     23644.30000	      2.65964e-02	
     23672.60000	      2.58013e-02	
     23700.80000	      2.59684e-02	
     23729.00000	      2.29220e-02	
     23757.20000	      2.40176e-02	
     23785.30000	      2.50913e-02	
     23813.40000	      2.45979e-02	
     23841.40000	      2.48772e-02	
     23869.40000	      2.42680e-02	
     23897.30000	      2.49205e-02	
     23925.20000	      2.44565e-02	
     23953.10000	      2.66299e-02	
     23981.00000	      2.53526e-02	
     24008.80000	      2.51408e-02	
     24036.60000	      2.55003e-02	
     24064.30000	      2.54285e-02	
     24092.00000	      2.50629e-02	
     24119.70000	      2.51683e-02	
     24147.40000	      2.64266e-02	
     24175.00000	      2.38190e-02	
     24202.60000	      2.41876e-02	
     24230.20000	      2.38293e-02	
     24257.70000	      2.62412e-02	
     24285.30000	      2.38463e-02	
     24312.80000	      2.53261e-02	
     24340.30000	      2.45826e-02	
     24367.80000	      2.06447e-02	
     24395.30000	      2.38566e-02	
     24422.70000	      2.48054e-02	
     24450.20000	      2.36242e-02	
     24477.60000	      2.01475e-02	
     24505.10000	      2.02364e-02	
     24532.50000	      1.97076e-02	
     24560.00000	      2.06522e-02	
     24587.40000	      2.17191e-02	
     24614.80000	      2.06580e-02	
     24642.30000	      2.21340e-02	
     24669.70000	      1.67917e-02	
     24697.20000	      2.14037e-02	
     24724.70000	      1.94592e-02	
     24752.20000	      1.66766e-02	
     24779.70000	      1.93610e-02	
     24807.20000	      1.71147e-02	
     24834.80000	      1.99904e-02	
     24862.40000	      2.43282e-02	
     24890.00000	      2.01688e-02	
     24917.60000	      2.08800e-02	
     24945.30000	      1.78029e-02	
     24973.10000	      1.43178e-02	
     25000.80000	      1.71267e-02	
     25028.60000	      1.72836e-02	
     25056.50000	      2.02869e-02	
     25084.40000	      1.79800e-02	
     25112.40000	      2.11879e-02	
     25140.50000	      2.29505e-02	
     25168.60000	      9.41427e-03	
     25196.80000	      1.81745e-02	
     25225.00000	      2.12744e-02	
     25253.40000	      1.34604e-02	
     25281.80000	      1.51439e-02	
     25310.30000	      2.37090e-02	
     25338.90000	      2.67722e-02	
     25367.60000	      2.13197e-02	
     25396.40000	      3.76313e-02	
     25425.40000	      3.16703e-02	
     25454.40000	     -1.04114e-02	
     25483.50000	     -1.72476e-02	
     25512.80000	      6.07978e-02	
     25542.20000	      2.16412e-02	
     25571.70000	      2.78275e-02	
#time:0.015938
