# The SpeX Prism Spectral Libraries
# spty = Opt:L8,NIR:L9  (Spectral type)
#
#     WAVELENGTH	#            FLUX	
#     (ANGSTROM)	#   (ERG/CM2/S/A)	
################	#################	
      6497.47000	      1.89031e-03	
      6519.69000	     -1.03238e-03	
      6541.79000	      2.26041e-02	
      6563.78000	      2.74734e-03	
      6585.69000	     -8.54449e-03	
      6607.51000	      2.45897e-03	
      6629.25000	     -2.12467e-02	
      6650.93000	      1.29006e-03	
      6672.56000	      5.60478e-03	
      6694.13000	     -6.84327e-03	
      6715.67000	      2.35266e-02	
      6737.18000	     -2.06972e-03	
      6758.67000	      1.19545e-03	
      6780.14000	     -4.73888e-03	
      6801.61000	     -2.05438e-04	
      6823.08000	     -7.96271e-03	
      6844.56000	     -6.90774e-03	
      6866.06000	      1.06611e-02	
      6887.58000	      4.50308e-03	
      6909.13000	     -9.81324e-03	
      6930.72000	      4.67590e-03	
      6952.35000	      1.55278e-02	
      6974.04000	     -2.47538e-03	
      6995.78000	      4.76631e-03	
      7017.58000	      6.84378e-03	
      7039.46000	      8.26521e-03	
      7061.40000	      6.97304e-03	
      7083.43000	      3.95614e-03	
      7105.55000	      1.43745e-02	
      7127.75000	      6.26943e-03	
      7150.06000	     -6.50169e-03	
      7172.46000	     -3.67140e-04	
      7194.97000	     -4.79429e-03	
      7217.59000	     -1.10727e-03	
      7240.33000	     -4.41976e-03	
      7263.18000	      6.56207e-03	
      7286.16000	      3.06065e-03	
      7309.27000	      9.56426e-03	
      7332.50000	      3.02684e-03	
      7355.88000	     -7.71369e-04	
      7379.39000	     -3.08714e-03	
      7403.05000	     -8.51791e-04	
      7426.85000	     -1.86331e-04	
      7450.80000	      1.70547e-03	
      7474.90000	      3.01388e-03	
      7499.16000	     -8.03278e-04	
      7523.58000	      5.85915e-04	
      7548.16000	      2.89512e-03	
      7572.90000	     -4.56773e-04	
      7597.81000	      4.42497e-04	
      7622.89000	     -9.64806e-03	
      7648.14000	     -1.89980e-03	
      7673.57000	     -2.27600e-04	
      7699.16000	     -1.07518e-03	
      7724.94000	     -6.21709e-04	
      7750.90000	      7.44579e-04	
      7777.03000	     -7.33377e-04	
      7803.35000	      1.39343e-03	
      7829.85000	      2.71523e-03	
      7856.54000	      4.49306e-04	
      7883.42000	      4.71196e-03	
      7910.48000	      3.84562e-03	
      7937.74000	      4.36315e-03	
      7965.18000	      1.98399e-03	
      7992.82000	      3.49732e-03	
      8020.65000	      4.20662e-03	
      8048.67000	      4.22080e-03	
      8076.89000	      5.12453e-03	
      8105.30000	      7.02181e-03	
      8133.91000	      7.38455e-03	
      8162.71000	      7.07974e-03	
      8191.71000	      6.63126e-03	
      8220.91000	      9.06018e-03	
      8250.30000	      1.04483e-02	
      8279.89000	      1.05633e-02	
      8309.68000	      1.04282e-02	
      8339.66000	      6.36986e-03	
      8369.84000	      1.34183e-02	
      8400.22000	      1.15590e-02	
      8430.80000	      1.45789e-02	
      8461.57000	      1.40635e-02	
      8492.53000	      1.52382e-02	
      8523.70000	      1.46904e-02	
      8555.06000	      1.57453e-02	
      8586.61000	      1.83255e-02	
      8618.36000	      1.43892e-02	
      8650.30000	      1.77902e-02	
      8682.44000	      1.62825e-02	
      8714.77000	      1.69849e-02	
      8747.29000	      1.84110e-02	
      8780.00000	      2.34007e-02	
      8812.90000	      2.15683e-02	
      8845.99000	      2.14593e-02	
      8879.27000	      2.17645e-02	
      8912.73000	      2.37953e-02	
      8946.38000	      2.39212e-02	
      8980.22000	      2.52840e-02	
      9014.24000	      2.67429e-02	
      9048.44000	      2.59462e-02	
      9082.83000	      2.88226e-02	
      9117.39000	      3.23845e-02	
      9152.13000	      3.44883e-02	
      9187.05000	      3.43540e-02	
      9222.15000	      3.35108e-02	
      9257.42000	      3.02387e-02	
      9292.86000	      3.24481e-02	
      9328.48000	      3.01348e-02	
      9364.27000	      3.15703e-02	
      9400.22000	      3.45340e-02	
      9436.34000	      3.75807e-02	
      9472.63000	      3.81099e-02	
      9509.08000	      4.20802e-02	
      9545.69000	      3.83887e-02	
      9582.46000	      3.88508e-02	
      9619.39000	      4.42368e-02	
      9656.48000	      4.75650e-02	
      9693.72000	      4.67505e-02	
      9731.12000	      4.81805e-02	
      9768.66000	      4.90291e-02	
      9806.36000	      5.14136e-02	
      9844.20000	      4.92543e-02	
      9882.19000	      4.87956e-02	
      9920.33000	      4.78533e-02	
      9958.60000	      4.77361e-02	
      9997.02000	      4.79722e-02	
     10035.60000	      5.07426e-02	
     10074.30000	      5.06741e-02	
     10113.10000	      5.39617e-02	
     10152.00000	      5.47660e-02	
     10191.10000	      5.54630e-02	
     10230.30000	      5.54347e-02	
     10269.70000	      5.87159e-02	
     10309.20000	      6.17605e-02	
     10348.70000	      6.06908e-02	
     10388.40000	      6.29748e-02	
     10428.30000	      6.38305e-02	
     10468.20000	      6.54105e-02	
     10508.30000	      6.61766e-02	
     10548.40000	      6.67839e-02	
     10588.70000	      6.72044e-02	
     10629.10000	      6.83989e-02	
     10669.60000	      6.94343e-02	
     10710.20000	      7.00899e-02	
     10750.90000	      7.23450e-02	
     10791.70000	      7.21218e-02	
     10832.50000	      7.36591e-02	
     10873.50000	      7.34727e-02	
     10914.60000	      7.01728e-02	
     10955.80000	      6.97294e-02	
     10997.00000	      6.78904e-02	
     11038.40000	      6.56783e-02	
     11079.80000	      6.15510e-02	
     11121.30000	      5.67631e-02	
     11162.90000	      5.83492e-02	
     11204.60000	      6.22104e-02	
     11246.30000	      6.18761e-02	
     11288.10000	      6.17643e-02	
     11330.00000	      6.21794e-02	
     11372.00000	      6.21020e-02	
     11414.00000	      6.21841e-02	
     11456.10000	      6.51944e-02	
     11498.30000	      6.81266e-02	
     11540.50000	      6.97096e-02	
     11582.80000	      6.95958e-02	
     11625.10000	      6.93927e-02	
     11667.50000	      6.69638e-02	
     11709.90000	      6.50901e-02	
     11752.40000	      6.82449e-02	
     11795.00000	      7.15452e-02	
     11837.60000	      7.40231e-02	
     11880.20000	      7.87360e-02	
     11922.90000	      7.91582e-02	
     11965.60000	      7.97716e-02	
     12008.40000	      7.96302e-02	
     12051.20000	      8.30787e-02	
     12094.00000	      8.67846e-02	
     12136.90000	      8.70824e-02	
     12179.80000	      8.78124e-02	
     12222.70000	      9.05132e-02	
     12265.70000	      9.18072e-02	
     12308.70000	      9.12013e-02	
     12351.70000	      8.92962e-02	
     12394.70000	      8.96231e-02	
     12437.80000	      8.94578e-02	
     12480.90000	      9.25362e-02	
     12524.00000	      9.32433e-02	
     12567.10000	      9.46379e-02	
     12610.20000	      9.74263e-02	
     12653.40000	      9.99287e-02	
     12696.50000	      1.02222e-01	
     12739.70000	      9.97348e-02	
     12782.80000	      1.02080e-01	
     12826.00000	      1.00673e-01	
     12869.20000	      1.01510e-01	
     12912.40000	      1.01078e-01	
     12955.60000	      1.00438e-01	
     12998.70000	      9.72811e-02	
     13041.90000	      9.74641e-02	
     13085.10000	      9.75905e-02	
     13128.30000	      9.67849e-02	
     13171.40000	      9.48294e-02	
     13214.60000	      9.15492e-02	
     13257.70000	      8.19701e-02	
     13300.90000	      6.67791e-02	
     13344.00000	      5.28896e-02	
     13387.10000	      4.51116e-02	
     13430.20000	      4.07153e-02	
     13473.30000	      3.83788e-02	
     13516.30000	      3.52970e-02	
     13559.30000	      4.09982e-02	
     13602.40000	      3.21943e-02	
     13645.40000	      6.22121e-02	
     13688.30000	      1.73857e-02	
     13731.30000	      5.42572e-02	
     13774.20000	      4.46212e-02	
     13817.10000	      4.50308e-02	
     13860.00000	      3.15175e-02	
     13902.80000	      4.27301e-02	
     13945.60000	      2.79285e-02	
     13988.40000	      4.14030e-02	
     14031.10000	      3.27848e-02	
     14073.80000	      3.70909e-02	
     14116.50000	      4.14129e-02	
     14159.20000	      3.91824e-02	
     14201.80000	      3.75490e-02	
     14244.30000	      3.61967e-02	
     14286.90000	      3.87905e-02	
     14329.30000	      3.71329e-02	
     14371.80000	      3.84528e-02	
     14414.20000	      4.24595e-02	
     14456.60000	      4.56000e-02	
     14498.90000	      4.69202e-02	
     14541.10000	      4.86031e-02	
     14583.40000	      4.83979e-02	
     14625.60000	      4.75037e-02	
     14667.70000	      4.90597e-02	
     14709.80000	      5.08220e-02	
     14751.80000	      5.35770e-02	
     14793.80000	      5.33500e-02	
     14835.70000	      5.66575e-02	
     14877.60000	      5.79886e-02	
     14919.50000	      6.04086e-02	
     14961.20000	      6.05712e-02	
     15003.00000	      6.29073e-02	
     15044.70000	      6.63657e-02	
     15086.30000	      6.76182e-02	
     15127.90000	      6.86760e-02	
     15169.40000	      7.29322e-02	
     15210.80000	      7.21058e-02	
     15252.20000	      7.37832e-02	
     15293.60000	      7.65794e-02	
     15334.90000	      7.93000e-02	
     15376.10000	      7.93521e-02	
     15417.30000	      8.38455e-02	
     15458.40000	      8.55679e-02	
     15499.40000	      8.63470e-02	
     15540.40000	      8.72944e-02	
     15581.30000	      8.78458e-02	
     15622.20000	      8.86225e-02	
     15663.00000	      9.02382e-02	
     15703.80000	      9.17435e-02	
     15744.50000	      9.11290e-02	
     15785.10000	      9.29779e-02	
     15825.70000	      9.21443e-02	
     15866.20000	      9.23402e-02	
     15906.60000	      9.50969e-02	
     15947.00000	      9.51426e-02	
     15987.30000	      9.61251e-02	
     16027.50000	      9.60675e-02	
     16067.70000	      9.51402e-02	
     16107.80000	      9.46985e-02	
     16147.90000	      9.59452e-02	
     16187.90000	      9.58998e-02	
     16227.80000	      9.65671e-02	
     16267.70000	      9.47166e-02	
     16307.50000	      9.51184e-02	
     16347.20000	      9.45142e-02	
     16386.90000	      9.58917e-02	
     16426.50000	      9.52697e-02	
     16466.00000	      9.60058e-02	
     16505.50000	      9.67961e-02	
     16544.90000	      9.56286e-02	
     16584.20000	      9.56633e-02	
     16623.50000	      9.31070e-02	
     16662.70000	      9.40882e-02	
     16701.80000	      9.47599e-02	
     16740.90000	      9.50533e-02	
     16779.90000	      9.36833e-02	
     16818.80000	      9.47909e-02	
     16857.70000	      9.45677e-02	
     16896.50000	      9.33265e-02	
     16935.30000	      9.26797e-02	
     16974.00000	      9.05667e-02	
     17012.60000	      9.03241e-02	
     17051.10000	      9.01022e-02	
     17089.60000	      8.77142e-02	
     17128.00000	      8.75128e-02	
     17166.40000	      8.37627e-02	
     17204.70000	      8.29693e-02	
     17242.90000	      8.05936e-02	
     17281.10000	      7.98170e-02	
     17319.20000	      7.86310e-02	
     17357.20000	      7.60576e-02	
     17395.20000	      7.35732e-02	
     17433.10000	      7.23184e-02	
     17470.90000	      7.01717e-02	
     17508.70000	      6.50032e-02	
     17546.40000	      6.46355e-02	
     17584.10000	      5.99901e-02	
     17621.70000	      5.96698e-02	
     17659.20000	      5.75118e-02	
     17696.60000	      5.23586e-02	
     17734.00000	      5.28388e-02	
     17771.40000	      5.16102e-02	
     17808.70000	      4.95140e-02	
     17845.90000	      5.06956e-02	
     17883.00000	      4.73551e-02	
     17920.10000	      4.61544e-02	
     17957.10000	      4.68575e-02	
     17994.10000	      4.63306e-02	
     18031.00000	      4.60382e-02	
     18067.90000	      4.37198e-02	
     18104.70000	      4.69304e-02	
     18141.40000	      4.17306e-02	
     18178.10000	      4.90924e-02	
     18214.70000	      4.37171e-02	
     18251.20000	      4.47575e-02	
     18287.70000	      5.06284e-02	
     18324.10000	     -2.42472e-03	
     18360.50000	      3.03372e-02	
     18396.80000	      3.08029e-02	
     18433.10000	      3.92093e-02	
     18469.30000	      2.59795e-02	
     18505.50000	      5.09385e-02	
     18541.50000	     -1.92861e-02	
     18577.60000	      5.31639e-02	
     18613.60000	      3.23935e-02	
     18649.50000	      1.63334e-02	
     18685.30000	     -3.51014e-02	
     18721.20000	      1.06009e-02	
     18756.90000	      3.28186e-02	
     18792.60000	      1.27358e-02	
     18828.30000	      3.35174e-02	
     18863.90000	      3.53839e-02	
     18899.40000	      2.86944e-02	
     18934.90000	      3.23606e-02	
     18970.30000	      2.53319e-02	
     19005.70000	      3.61970e-03	
     19041.00000	      7.76130e-03	
     19076.30000	      2.82247e-02	
     19111.50000	      5.12061e-02	
     19146.70000	      4.34097e-02	
     19181.80000	      4.37927e-02	
     19216.90000	      3.98909e-02	
     19251.90000	      4.19555e-02	
     19286.80000	      4.26292e-02	
     19321.80000	      3.62570e-02	
     19356.60000	      3.97522e-02	
     19391.40000	      4.07296e-02	
     19426.20000	      3.86399e-02	
     19460.90000	      4.06489e-02	
     19495.60000	      3.75739e-02	
     19530.20000	      3.74638e-02	
     19564.70000	      3.53011e-02	
     19599.30000	      3.77712e-02	
     19633.70000	      4.01994e-02	
     19668.10000	      4.00559e-02	
     19702.50000	      4.13478e-02	
     19736.80000	      4.18440e-02	
     19771.10000	      4.20829e-02	
     19805.30000	      4.30542e-02	
     19839.50000	      4.21456e-02	
     19873.60000	      4.28831e-02	
     19907.70000	      4.17302e-02	
     19941.80000	      4.23900e-02	
     19975.80000	      4.05766e-02	
     20009.70000	      3.87043e-02	
     20043.60000	      3.79324e-02	
     20077.40000	      4.07235e-02	
     20111.30000	      4.12718e-02	
     20145.00000	      4.41247e-02	
     20178.70000	      4.97284e-02	
     20212.40000	      5.10193e-02	
     20246.00000	      5.02897e-02	
     20279.60000	      5.10922e-02	
     20313.10000	      5.15741e-02	
     20346.60000	      5.48308e-02	
     20380.00000	      5.24135e-02	
     20413.40000	      5.41778e-02	
     20446.80000	      5.41332e-02	
     20480.10000	      5.40136e-02	
     20513.30000	      5.42743e-02	
     20546.50000	      5.56371e-02	
     20579.70000	      5.63337e-02	
     20612.80000	      5.70211e-02	
     20645.90000	      5.64918e-02	
     20678.90000	      5.81375e-02	
     20711.90000	      5.86780e-02	
     20744.80000	      5.92339e-02	
     20777.70000	      5.94424e-02	
     20810.60000	      5.99029e-02	
     20843.40000	      5.97038e-02	
     20876.10000	      6.14013e-02	
     20908.80000	      6.23467e-02	
     20941.50000	      6.21951e-02	
     20974.10000	      6.15765e-02	
     21006.70000	      6.20025e-02	
     21039.20000	      6.20795e-02	
     21071.70000	      6.13185e-02	
     21104.20000	      6.28947e-02	
     21136.60000	      6.26176e-02	
     21168.90000	      6.20465e-02	
     21201.20000	      6.15002e-02	
     21233.50000	      6.24885e-02	
     21265.70000	      6.19834e-02	
     21297.80000	      6.19950e-02	
     21330.00000	      6.27281e-02	
     21362.00000	      6.21974e-02	
     21394.10000	      6.15370e-02	
     21426.00000	      6.17101e-02	
     21458.00000	      6.07688e-02	
     21489.90000	      6.07801e-02	
     21521.70000	      5.94585e-02	
     21553.50000	      5.90761e-02	
     21585.20000	      5.79170e-02	
     21616.90000	      5.90164e-02	
     21648.60000	      5.87622e-02	
     21680.20000	      5.81740e-02	
     21711.80000	      5.84463e-02	
     21743.30000	      5.87087e-02	
     21774.70000	      5.82163e-02	
     21806.10000	      5.76614e-02	
     21837.50000	      5.77633e-02	
     21868.80000	      5.75313e-02	
     21900.10000	      5.75926e-02	
     21931.30000	      5.66373e-02	
     21962.50000	      5.41737e-02	
     21993.60000	      5.44317e-02	
     22024.70000	      5.31067e-02	
     22055.70000	      5.31002e-02	
     22086.70000	      5.44995e-02	
     22117.60000	      5.36847e-02	
     22148.50000	      5.30440e-02	
     22179.30000	      5.34880e-02	
     22210.10000	      5.23419e-02	
     22240.80000	      5.14937e-02	
     22271.50000	      5.26067e-02	
     22302.10000	      5.23358e-02	
     22332.70000	      5.26500e-02	
     22363.20000	      5.20223e-02	
     22393.70000	      5.12166e-02	
     22424.10000	      5.04400e-02	
     22454.40000	      4.99717e-02	
     22484.80000	      4.97717e-02	
     22515.00000	      4.97993e-02	
     22545.20000	      4.96790e-02	
     22575.40000	      4.92969e-02	
     22605.50000	      4.80932e-02	
     22635.60000	      4.90243e-02	
     22665.60000	      4.60137e-02	
     22695.50000	      4.72808e-02	
     22725.40000	      4.80281e-02	
     22755.30000	      4.90669e-02	
     22785.10000	      4.83669e-02	
     22814.80000	      4.67699e-02	
     22844.50000	      4.70282e-02	
     22874.20000	      4.61725e-02	
     22903.80000	      4.35272e-02	
     22933.30000	      4.09897e-02	
     22962.80000	      3.88420e-02	
     22992.20000	      3.78339e-02	
     23021.60000	      3.71349e-02	
     23051.00000	      3.74600e-02	
     23080.20000	      3.84562e-02	
     23109.50000	      3.91204e-02	
     23138.60000	      3.80135e-02	
     23167.80000	      3.61756e-02	
     23196.90000	      3.61507e-02	
     23225.90000	      3.65078e-02	
     23254.90000	      3.54251e-02	
     23283.80000	      3.62539e-02	
     23312.70000	      3.66871e-02	
     23341.50000	      3.55574e-02	
     23370.30000	      3.50012e-02	
     23399.00000	      3.53907e-02	
     23427.70000	      3.63098e-02	
     23456.30000	      3.75367e-02	
     23484.90000	      3.69700e-02	
     23513.40000	      3.57019e-02	
     23541.90000	      3.52639e-02	
     23570.40000	      3.76904e-02	
     23598.70000	      3.72889e-02	
     23627.10000	      3.75210e-02	
     23655.40000	      3.54040e-02	
     23683.70000	      3.64601e-02	
     23711.90000	      3.58068e-02	
     23740.10000	      3.48117e-02	
     23768.20000	      3.66581e-02	
     23796.30000	      3.57745e-02	
     23824.40000	      3.54643e-02	
     23852.40000	      3.40269e-02	
     23880.30000	      3.63334e-02	
     23908.30000	      3.48311e-02	
     23936.20000	      3.49477e-02	
     23964.00000	      3.51051e-02	
     23991.90000	      3.70729e-02	
     24019.70000	      3.67416e-02	
     24047.40000	      3.43847e-02	
     24075.20000	      3.74328e-02	
     24102.90000	      3.47449e-02	
     24130.60000	      3.46556e-02	
     24158.20000	      3.29179e-02	
     24185.80000	      3.71032e-02	
     24213.40000	      3.52384e-02	
     24241.00000	      3.28068e-02	
     24268.60000	      3.42143e-02	
     24296.10000	      3.31386e-02	
     24323.60000	      3.18179e-02	
     24351.10000	      3.36500e-02	
     24378.60000	      3.18199e-02	
     24406.10000	      3.55393e-02	
     24433.50000	      3.29919e-02	
     24461.00000	      2.74280e-02	
     24488.40000	      2.64302e-02	
     24515.80000	      2.67241e-02	
     24543.30000	      3.20534e-02	
     24570.70000	      3.07114e-02	
     24598.20000	      3.09094e-02	
     24625.60000	      2.94047e-02	
     24653.10000	      2.90967e-02	
     24680.50000	      2.86552e-02	
     24708.00000	      2.42423e-02	
     24735.50000	      2.44055e-02	
     24763.00000	      2.50265e-02	
     24790.50000	      2.51364e-02	
     24818.00000	      1.83937e-02	
     24845.60000	      2.06116e-02	
     24873.20000	      2.94958e-02	
     24900.80000	      1.74263e-02	
     24928.50000	      1.32497e-02	
     24956.20000	      2.09424e-02	
     24983.90000	      1.84260e-02	
     25011.70000	      3.13717e-02	
     25039.60000	      1.61113e-02	
     25067.50000	      2.56878e-02	
     25095.40000	      3.68377e-02	
     25123.40000	      3.48666e-02	
     25151.50000	      3.16011e-02	
     25179.60000	      2.10495e-02	
     25207.90000	      1.88104e-02	
     25236.10000	     -2.86861e-03	
     25264.50000	      4.47773e-02	
     25293.00000	     -6.47916e-02	
     25321.50000	     -1.27933e-01	
     25350.20000	      9.69730e-01	
     25378.90000	     -1.13401e-01	
     25407.80000	     -6.66442e-02	
     25436.70000	     -1.19816e-01	
     25465.80000	     -1.18999e-01	
     25495.00000	     -7.12749e-02	
     25524.30000	      1.23660e-01	
     25553.80000	      6.11986e-02	
     25583.30000	      1.87405e-01	
#time:0.015720
