# The SpeX Prism Spectral Libraries
# spty = Opt:L1  (Spectral type)
#
#     WAVELENGTH	#           FLUX	
#     (ANGSTROM)	#  (ERG/CM2/S/A)	
################	################	
      6580.47000	     5.48478e-03	
      6602.31000	     5.45269e-03	
      6624.07000	     4.82447e-03	
      6645.77000	     4.70898e-03	
      6667.41000	     3.31555e-03	
      6688.99000	     5.24358e-03	
      6710.54000	     3.66635e-03	
      6732.05000	     5.49012e-03	
      6753.55000	     4.40127e-03	
      6775.02000	     2.56619e-03	
      6796.49000	     2.05693e-03	
      6817.96000	     2.59926e-03	
      6839.44000	     1.04135e-03	
      6860.93000	     2.88912e-03	
      6882.44000	     2.71675e-03	
      6903.99000	     4.54490e-03	
      6925.57000	     3.13646e-03	
      6947.19000	     2.98648e-03	
      6968.86000	     4.13482e-03	
      6990.59000	     3.68646e-03	
      7012.38000	     3.53621e-03	
      7034.23000	     4.45695e-03	
      7056.16000	     6.66086e-03	
      7078.17000	     7.75296e-03	
      7100.27000	     5.57694e-03	
      7122.45000	     6.43625e-03	
      7144.73000	     4.42092e-03	
      7167.11000	     6.40144e-03	
      7189.59000	     7.02245e-03	
      7212.19000	     7.58148e-03	
      7234.89000	     6.61231e-03	
      7257.72000	     7.40109e-03	
      7280.67000	     9.08631e-03	
      7303.74000	     9.22886e-03	
      7326.95000	     1.04120e-02	
      7350.29000	     9.85735e-03	
      7373.77000	     1.05918e-02	
      7397.39000	     1.00326e-02	
      7421.16000	     1.08908e-02	
      7445.07000	     8.93355e-03	
      7469.14000	     9.11265e-03	
      7493.36000	     9.70978e-03	
      7517.74000	     9.67495e-03	
      7542.28000	     9.91765e-03	
      7566.99000	     1.01184e-02	
      7591.86000	     9.02160e-03	
      7616.90000	     7.63943e-03	
      7642.10000	     4.68563e-03	
      7667.49000	     2.78197e-03	
      7693.04000	     3.51430e-03	
      7718.78000	     5.10249e-03	
      7744.69000	     6.81528e-03	
      7770.78000	     7.40296e-03	
      7797.06000	     8.93937e-03	
      7823.52000	     1.00745e-02	
      7850.16000	     1.03747e-02	
      7876.99000	     1.03940e-02	
      7904.01000	     1.05056e-02	
      7931.22000	     1.12709e-02	
      7958.62000	     1.08059e-02	
      7986.21000	     1.25616e-02	
      8014.00000	     1.43867e-02	
      8041.97000	     1.64498e-02	
      8070.14000	     1.92341e-02	
      8098.51000	     2.17739e-02	
      8127.07000	     2.42447e-02	
      8155.82000	     2.50687e-02	
      8184.78000	     2.56213e-02	
      8213.93000	     2.69773e-02	
      8243.27000	     2.73235e-02	
      8272.81000	     2.81790e-02	
      8302.55000	     2.85694e-02	
      8332.49000	     2.84769e-02	
      8362.62000	     2.96131e-02	
      8392.96000	     2.79585e-02	
      8423.48000	     2.70496e-02	
      8454.21000	     2.45934e-02	
      8485.13000	     2.27820e-02	
      8516.25000	     2.18004e-02	
      8547.56000	     2.40878e-02	
      8579.07000	     2.37714e-02	
      8610.77000	     2.32992e-02	
      8642.67000	     2.23357e-02	
      8674.76000	     2.15717e-02	
      8707.04000	     2.17415e-02	
      8739.51000	     2.18715e-02	
      8772.18000	     2.51983e-02	
      8805.03000	     2.81183e-02	
      8838.08000	     2.93965e-02	
      8871.31000	     3.07678e-02	
      8904.73000	     3.07484e-02	
      8938.34000	     3.34468e-02	
      8972.13000	     3.64425e-02	
      9006.11000	     3.80665e-02	
      9040.27000	     3.96849e-02	
      9074.61000	     4.26668e-02	
      9109.13000	     4.75161e-02	
      9143.83000	     5.12425e-02	
      9178.71000	     5.34866e-02	
      9213.76000	     5.38192e-02	
      9248.99000	     5.16319e-02	
      9284.39000	     5.06324e-02	
      9319.97000	     5.12165e-02	
      9355.71000	     5.30918e-02	
      9391.63000	     5.57147e-02	
      9427.71000	     5.83897e-02	
      9463.96000	     6.15109e-02	
      9500.37000	     6.43412e-02	
      9536.94000	     6.49687e-02	
      9573.67000	     6.32682e-02	
      9610.57000	     6.32950e-02	
      9647.62000	     6.40128e-02	
      9684.82000	     6.72023e-02	
      9722.18000	     6.93744e-02	
      9759.69000	     7.12897e-02	
      9797.35000	     7.33361e-02	
      9835.16000	     7.33652e-02	
      9873.12000	     6.53276e-02	
      9911.22000	     5.71028e-02	
      9949.46000	     5.04370e-02	
      9987.84000	     4.91228e-02	
     10026.40000	     5.23185e-02	
     10065.00000	     5.55786e-02	
     10103.80000	     5.89605e-02	
     10142.70000	     6.31471e-02	
     10181.80000	     6.36145e-02	
     10221.00000	     6.38416e-02	
     10260.30000	     6.27318e-02	
     10299.70000	     6.46593e-02	
     10339.30000	     6.79316e-02	
     10379.00000	     7.21353e-02	
     10418.80000	     7.50512e-02	
     10458.70000	     7.60850e-02	
     10498.70000	     7.55191e-02	
     10538.80000	     7.34701e-02	
     10579.10000	     7.21503e-02	
     10619.40000	     7.43147e-02	
     10659.90000	     7.61891e-02	
     10700.50000	     8.02284e-02	
     10741.20000	     8.41489e-02	
     10781.90000	     8.56755e-02	
     10822.80000	     8.92405e-02	
     10863.70000	     9.22311e-02	
     10904.80000	     9.40309e-02	
     10946.00000	     9.31719e-02	
     10987.20000	     9.17948e-02	
     11028.50000	     9.18935e-02	
     11069.90000	     9.13752e-02	
     11111.40000	     9.08625e-02	
     11153.00000	     9.06976e-02	
     11194.60000	     9.27623e-02	
     11236.40000	     9.34738e-02	
     11278.20000	     9.46541e-02	
     11320.00000	     8.99326e-02	
     11362.00000	     8.45879e-02	
     11404.00000	     8.27247e-02	
     11446.10000	     8.75616e-02	
     11488.20000	     9.23037e-02	
     11530.40000	     9.59101e-02	
     11572.70000	     9.66858e-02	
     11615.00000	     9.52012e-02	
     11657.40000	     9.02278e-02	
     11699.80000	     8.67994e-02	
     11742.30000	     8.23408e-02	
     11784.80000	     8.36119e-02	
     11827.40000	     8.44389e-02	
     11870.00000	     8.84851e-02	
     11912.70000	     8.63234e-02	
     11955.40000	     8.24360e-02	
     11998.20000	     7.95957e-02	
     12041.00000	     7.99955e-02	
     12083.80000	     8.28075e-02	
     12126.70000	     8.72416e-02	
     12169.60000	     8.94136e-02	
     12212.50000	     9.26090e-02	
     12255.50000	     9.52115e-02	
     12298.40000	     9.54805e-02	
     12341.40000	     9.25465e-02	
     12384.50000	     8.67812e-02	
     12427.50000	     8.40594e-02	
     12470.60000	     8.29307e-02	
     12513.70000	     8.49881e-02	
     12556.80000	     9.04831e-02	
     12599.90000	     9.52179e-02	
     12643.10000	     9.92865e-02	
     12686.20000	     1.00321e-01	
     12729.40000	     1.01608e-01	
     12772.50000	     1.03410e-01	
     12815.70000	     1.00848e-01	
     12858.90000	     9.91798e-02	
     12902.10000	     9.88009e-02	
     12945.30000	     9.96809e-02	
     12988.40000	     9.91936e-02	
     13031.60000	     9.90422e-02	
     13074.80000	     9.86290e-02	
     13118.00000	     9.84038e-02	
     13161.10000	     9.85017e-02	
     13204.30000	     9.82262e-02	
     13247.40000	     9.63536e-02	
     13290.60000	     8.84821e-02	
     13333.70000	     7.71817e-02	
     13376.80000	     6.67479e-02	
     13419.90000	     6.15143e-02	
     13463.00000	     5.90084e-02	
     13506.00000	     5.68964e-02	
     13549.10000	     5.66257e-02	
     13592.10000	     5.48708e-02	
     13635.10000	     5.36736e-02	
     13678.10000	     5.33766e-02	
     13721.00000	     5.27892e-02	
     13764.00000	     5.29209e-02	
     13806.90000	     5.31934e-02	
     13849.70000	     5.47534e-02	
     13892.60000	     5.55032e-02	
     13935.40000	     5.53421e-02	
     13978.20000	     5.15232e-02	
     14020.90000	     4.90895e-02	
     14063.70000	     4.90076e-02	
     14106.30000	     4.79608e-02	
     14149.00000	     4.74357e-02	
     14191.60000	     4.69386e-02	
     14234.20000	     4.59414e-02	
     14276.70000	     4.57758e-02	
     14319.20000	     4.53607e-02	
     14361.70000	     4.59308e-02	
     14404.10000	     4.61264e-02	
     14446.50000	     4.71828e-02	
     14488.80000	     4.78789e-02	
     14531.10000	     4.87951e-02	
     14573.30000	     4.93113e-02	
     14615.50000	     4.97226e-02	
     14657.60000	     4.91989e-02	
     14699.70000	     4.89162e-02	
     14741.80000	     4.85850e-02	
     14783.80000	     4.93983e-02	
     14825.70000	     4.99491e-02	
     14867.60000	     4.99636e-02	
     14909.50000	     5.09552e-02	
     14951.30000	     5.18541e-02	
     14993.00000	     5.26783e-02	
     15034.70000	     5.32680e-02	
     15076.40000	     5.38043e-02	
     15117.90000	     5.49742e-02	
     15159.50000	     5.51241e-02	
     15200.90000	     5.64598e-02	
     15242.40000	     5.70972e-02	
     15283.70000	     5.80610e-02	
     15325.00000	     5.83381e-02	
     15366.30000	     5.91530e-02	
     15407.40000	     5.99744e-02	
     15448.60000	     6.08611e-02	
     15489.60000	     6.14449e-02	
     15530.60000	     6.25404e-02	
     15571.60000	     6.30314e-02	
     15612.50000	     6.30969e-02	
     15653.30000	     6.40228e-02	
     15694.10000	     6.48060e-02	
     15734.80000	     6.49978e-02	
     15775.40000	     6.54247e-02	
     15816.00000	     6.53145e-02	
     15856.50000	     6.41743e-02	
     15897.00000	     6.38491e-02	
     15937.30000	     6.42219e-02	
     15977.70000	     6.54794e-02	
     16017.90000	     6.67147e-02	
     16058.10000	     6.63022e-02	
     16098.30000	     6.51552e-02	
     16138.30000	     6.41121e-02	
     16178.30000	     6.46236e-02	
     16218.30000	     6.51633e-02	
     16258.20000	     6.50372e-02	
     16298.00000	     6.46844e-02	
     16337.70000	     6.49560e-02	
     16377.40000	     6.58969e-02	
     16417.00000	     6.68154e-02	
     16456.60000	     6.72882e-02	
     16496.00000	     6.83970e-02	
     16535.50000	     6.84877e-02	
     16574.80000	     6.87497e-02	
     16614.10000	     6.89350e-02	
     16653.30000	     6.83337e-02	
     16692.50000	     6.86497e-02	
     16731.60000	     6.84269e-02	
     16770.60000	     6.89142e-02	
     16809.60000	     6.93699e-02	
     16848.50000	     6.89342e-02	
     16887.30000	     6.90954e-02	
     16926.00000	     6.84877e-02	
     16964.70000	     6.78353e-02	
     17003.40000	     6.78190e-02	
     17041.90000	     6.75739e-02	
     17080.40000	     6.68700e-02	
     17118.90000	     6.53768e-02	
     17157.30000	     6.36210e-02	
     17195.60000	     6.22899e-02	
     17233.80000	     6.11472e-02	
     17272.00000	     6.00759e-02	
     17310.10000	     5.90961e-02	
     17348.10000	     5.83935e-02	
     17386.10000	     5.59978e-02	
     17424.00000	     5.52938e-02	
     17461.90000	     5.41860e-02	
     17499.70000	     5.30195e-02	
     17537.40000	     5.12947e-02	
     17575.10000	     5.00051e-02	
     17612.70000	     4.93685e-02	
     17650.20000	     4.84133e-02	
     17687.70000	     4.69923e-02	
     17725.10000	     4.58290e-02	
     17762.50000	     4.44448e-02	
     17799.80000	     4.36582e-02	
     17837.00000	     4.28542e-02	
     17874.20000	     4.21306e-02	
     17911.30000	     4.06623e-02	
     17948.30000	     4.09452e-02	
     17985.30000	     4.06240e-02	
     18022.20000	     4.00411e-02	
     18059.10000	     3.84421e-02	
     18095.90000	     3.86495e-02	
     18132.60000	     3.91036e-02	
     18169.30000	     3.89174e-02	
     18205.90000	     3.80097e-02	
     18242.50000	     3.79795e-02	
     18279.00000	     3.86336e-02	
     18315.50000	     3.88138e-02	
     18351.90000	     3.76064e-02	
     18388.20000	     3.55301e-02	
     18424.50000	     3.44441e-02	
     18460.70000	     3.45793e-02	
     18496.80000	     3.50892e-02	
     18532.90000	     3.24979e-02	
     18569.00000	     3.18282e-02	
     18605.00000	     3.00259e-02	
     18640.90000	     3.13646e-02	
     18676.80000	     3.37691e-02	
     18712.60000	     3.32318e-02	
     18748.40000	     3.03747e-02	
     18784.10000	     3.21873e-02	
     18819.80000	     3.34840e-02	
     18855.40000	     3.47021e-02	
     18890.90000	     3.44631e-02	
     18926.40000	     3.50121e-02	
     18961.90000	     3.40723e-02	
     18997.30000	     3.52493e-02	
     19032.60000	     3.45378e-02	
     19067.90000	     3.55348e-02	
     19103.10000	     3.59209e-02	
     19138.30000	     3.65155e-02	
     19173.40000	     3.55129e-02	
     19208.50000	     3.63985e-02	
     19243.50000	     3.56256e-02	
     19278.50000	     3.48439e-02	
     19313.40000	     3.42116e-02	
     19348.30000	     3.39879e-02	
     19383.10000	     3.38918e-02	
     19417.90000	     3.25515e-02	
     19452.60000	     3.13377e-02	
     19487.30000	     3.11810e-02	
     19521.90000	     3.17954e-02	
     19556.50000	     3.19209e-02	
     19591.00000	     3.17222e-02	
     19625.50000	     3.23005e-02	
     19659.90000	     3.20621e-02	
     19694.30000	     3.18318e-02	
     19728.70000	     3.08317e-02	
     19762.90000	     2.96522e-02	
     19797.20000	     2.90593e-02	
     19831.40000	     2.88758e-02	
     19865.50000	     2.94517e-02	
     19899.60000	     2.93043e-02	
     19933.70000	     3.01311e-02	
     19967.70000	     3.14942e-02	
     20001.60000	     3.15412e-02	
     20035.50000	     2.96355e-02	
     20069.40000	     2.91196e-02	
     20103.20000	     2.99121e-02	
     20137.00000	     2.98404e-02	
     20170.70000	     2.95074e-02	
     20204.40000	     3.00796e-02	
     20238.00000	     3.01920e-02	
     20271.60000	     3.03824e-02	
     20305.10000	     3.06158e-02	
     20338.60000	     3.11544e-02	
     20372.10000	     3.16407e-02	
     20405.50000	     3.17031e-02	
     20438.80000	     3.17904e-02	
     20472.10000	     3.23781e-02	
     20505.40000	     3.25456e-02	
     20538.60000	     3.24490e-02	
     20571.80000	     3.22398e-02	
     20604.90000	     3.24980e-02	
     20638.00000	     3.29377e-02	
     20671.00000	     3.24320e-02	
     20704.00000	     3.27049e-02	
     20737.00000	     3.31515e-02	
     20769.90000	     3.33142e-02	
     20802.70000	     3.38223e-02	
     20835.60000	     3.41965e-02	
     20868.30000	     3.42702e-02	
     20901.00000	     3.50516e-02	
     20933.70000	     3.50132e-02	
     20966.40000	     3.52540e-02	
     20998.90000	     3.54963e-02	
     21031.50000	     3.58523e-02	
     21064.00000	     3.61158e-02	
     21096.40000	     3.64087e-02	
     21128.80000	     3.69236e-02	
     21161.20000	     3.67229e-02	
     21193.50000	     3.68295e-02	
     21225.80000	     3.70351e-02	
     21258.00000	     3.74183e-02	
     21290.20000	     3.75913e-02	
     21322.30000	     3.73678e-02	
     21354.40000	     3.78754e-02	
     21386.40000	     3.78671e-02	
     21418.40000	     3.78851e-02	
     21450.40000	     3.82132e-02	
     21482.30000	     3.88392e-02	
     21514.10000	     3.87108e-02	
     21545.90000	     3.82960e-02	
     21577.70000	     3.82152e-02	
     21609.40000	     3.80797e-02	
     21641.10000	     3.85771e-02	
     21672.70000	     3.86493e-02	
     21704.20000	     3.84558e-02	
     21735.80000	     3.87461e-02	
     21767.20000	     3.85570e-02	
     21798.70000	     3.87851e-02	
     21830.00000	     3.91424e-02	
     21861.40000	     3.93429e-02	
     21892.60000	     3.87854e-02	
     21923.90000	     3.86836e-02	
     21955.00000	     3.86645e-02	
     21986.20000	     3.91168e-02	
     22017.30000	     3.85896e-02	
     22048.30000	     3.81139e-02	
     22079.30000	     3.80001e-02	
     22110.20000	     3.81713e-02	
     22141.10000	     3.86526e-02	
     22171.90000	     3.86289e-02	
     22202.70000	     3.82129e-02	
     22233.50000	     3.82753e-02	
     22264.20000	     3.84282e-02	
     22294.80000	     3.87706e-02	
     22325.40000	     3.82426e-02	
     22355.90000	     3.77947e-02	
     22386.40000	     3.77468e-02	
     22416.80000	     3.80892e-02	
     22447.20000	     3.79326e-02	
     22477.50000	     3.78314e-02	
     22507.80000	     3.75947e-02	
     22538.00000	     3.75835e-02	
     22568.20000	     3.73281e-02	
     22598.30000	     3.72389e-02	
     22628.40000	     3.72594e-02	
     22658.40000	     3.66033e-02	
     22688.40000	     3.63823e-02	
     22718.30000	     3.62853e-02	
     22748.20000	     3.62897e-02	
     22778.00000	     3.61484e-02	
     22807.70000	     3.56706e-02	
     22837.50000	     3.56618e-02	
     22867.10000	     3.57852e-02	
     22896.70000	     3.59385e-02	
     22926.30000	     3.40233e-02	
     22955.80000	     3.10912e-02	
     22985.20000	     2.96427e-02	
     23014.60000	     2.97761e-02	
     23044.00000	     3.05802e-02	
     23073.30000	     3.09348e-02	
     23102.50000	     3.10058e-02	
     23131.70000	     3.08454e-02	
     23160.80000	     3.07796e-02	
     23189.90000	     3.02112e-02	
     23219.00000	     2.89613e-02	
     23247.90000	     2.78939e-02	
     23276.90000	     2.69244e-02	
     23305.80000	     2.73224e-02	
     23334.60000	     2.73986e-02	
     23363.40000	     2.77205e-02	
     23392.10000	     2.80220e-02	
     23420.80000	     2.78823e-02	
     23449.50000	     2.77534e-02	
     23478.10000	     2.83587e-02	
     23506.60000	     2.79723e-02	
     23535.10000	     2.66465e-02	
     23563.60000	     2.57840e-02	
     23592.00000	     2.55388e-02	
     23620.30000	     2.60187e-02	
     23648.70000	     2.62732e-02	
     23676.90000	     2.64704e-02	
     23705.20000	     2.64574e-02	
     23733.40000	     2.63844e-02	
     23761.50000	     2.61249e-02	
     23789.60000	     2.57460e-02	
     23817.70000	     2.59944e-02	
     23845.70000	     2.55276e-02	
     23873.70000	     2.44090e-02	
     23901.60000	     2.47782e-02	
     23929.50000	     2.50647e-02	
     23957.40000	     2.50783e-02	
     23985.20000	     2.41533e-02	
     24013.00000	     2.39227e-02	
     24040.80000	     2.40884e-02	
     24068.60000	     2.34252e-02	
     24096.30000	     2.29775e-02	
     24124.00000	     2.25013e-02	
     24151.60000	     2.23015e-02	
     24179.20000	     2.20549e-02	
     24206.80000	     2.16041e-02	
     24234.40000	     2.13550e-02	
     24262.00000	     2.14244e-02	
     24289.50000	     2.12192e-02	
     24317.00000	     2.10047e-02	
     24344.50000	     2.02243e-02	
     24372.00000	     1.98716e-02	
     24399.50000	     1.97499e-02	
     24427.00000	     2.02615e-02	
     24454.40000	     1.96443e-02	
     24481.90000	     1.93418e-02	
     24509.30000	     1.84767e-02	
     24536.70000	     1.83591e-02	
     24564.20000	     1.84000e-02	
     24591.60000	     1.80822e-02	
     24619.10000	     1.84131e-02	
     24646.50000	     1.80899e-02	
     24674.00000	     1.76475e-02	
     24701.40000	     1.73233e-02	
     24728.90000	     1.68842e-02	
     24756.40000	     1.64262e-02	
     24783.90000	     1.70033e-02	
     24811.50000	     1.70015e-02	
     24839.00000	     1.67891e-02	
     24866.60000	     1.65437e-02	
     24894.20000	     1.59675e-02	
     24921.90000	     1.57888e-02	
     24949.60000	     1.62529e-02	
     24977.30000	     1.57252e-02	
     25005.10000	     1.59966e-02	
     25032.90000	     1.57305e-02	
     25060.80000	     1.55545e-02	
     25088.70000	     1.50914e-02	
     25116.70000	     1.56724e-02	
     25144.80000	     1.55062e-02	
     25172.90000	     1.51254e-02	
     25201.10000	     1.48713e-02	
     25229.40000	     1.58305e-02	
     25257.70000	     1.57747e-02	
     25286.20000	     1.41109e-02	
     25314.70000	     1.53634e-02	
     25343.30000	     1.48140e-02	
     25372.00000	     1.46671e-02	
     25400.90000	     1.36916e-02	
     25429.80000	     1.51144e-02	
     25458.80000	     1.58178e-02	
     25488.00000	     1.44874e-02	
     25517.30000	     1.24200e-02	
     25546.70000	     1.19188e-02	
     25576.30000	     1.31295e-02	
     25606.00000	     1.39266e-02	
#time:0.015740
