# The SpeX Prism Spectral Libraries
# spty = Opt:L3  (Spectral type)
#
#     WAVELENGTH	#            FLUX	
#     (ANGSTROM)	#   (ERG/CM2/S/A)	
################	#################	
      6441.16000	      1.03101e-02	
      6463.71000	      2.21528e-02	
      6486.12000	      3.77405e-02	
      6508.39000	      2.52962e-02	
      6530.55000	     -6.41948e-05	
      6552.60000	      2.37937e-02	
      6574.55000	      6.78401e-03	
      6596.41000	      6.70388e-03	
      6618.19000	      6.42043e-03	
      6639.91000	      7.60407e-03	
      6661.56000	      3.09195e-02	
      6683.16000	      7.79028e-03	
      6704.71000	     -4.24862e-03	
      6726.24000	      3.15144e-03	
      6747.73000	      9.41672e-03	
      6769.21000	      4.70823e-03	
      6790.68000	     -2.60885e-03	
      6812.15000	      1.53848e-02	
      6833.62000	      6.39787e-03	
      6855.11000	      4.30680e-03	
      6876.62000	      1.22648e-02	
      6898.15000	      9.15763e-03	
      6919.72000	      6.93792e-03	
      6941.33000	      1.66848e-02	
      6962.99000	      8.81254e-03	
      6984.70000	      1.83143e-02	
      7006.47000	      9.80597e-03	
      7028.31000	      9.22182e-03	
      7050.22000	      1.54680e-02	
      7072.21000	      1.28071e-02	
      7094.28000	      1.04475e-02	
      7116.44000	      1.15848e-02	
      7138.69000	      9.25000e-03	
      7161.04000	      3.56866e-04	
      7183.50000	      1.21805e-03	
      7206.06000	      1.26688e-02	
      7228.74000	      2.75352e-03	
      7251.53000	      3.04030e-03	
      7274.45000	      4.10261e-03	
      7297.49000	      3.92518e-03	
      7320.66000	     -2.40293e-03	
      7343.96000	      3.16167e-03	
      7367.41000	      5.83323e-03	
      7390.99000	      4.41092e-03	
      7414.71000	      7.91136e-03	
      7438.59000	      7.17383e-03	
      7462.62000	      2.61641e-03	
      7486.80000	      6.29139e-03	
      7511.13000	      5.18977e-03	
      7535.63000	      7.10324e-03	
      7560.29000	      1.78387e-04	
      7585.11000	      7.62387e-03	
      7610.11000	      5.35744e-03	
      7635.27000	      3.62923e-03	
      7660.60000	     -4.87053e-03	
      7686.11000	     -4.32988e-04	
      7711.80000	      2.52709e-04	
      7737.66000	      3.60915e-03	
      7763.70000	      2.54659e-03	
      7789.93000	      2.31436e-03	
      7816.34000	      7.33839e-03	
      7842.93000	      8.06423e-03	
      7869.72000	      7.26107e-03	
      7896.68000	      1.12727e-02	
      7923.84000	      1.08167e-02	
      7951.19000	      6.72039e-03	
      7978.73000	      9.20256e-03	
      8006.46000	      1.09529e-02	
      8034.38000	      1.16701e-02	
      8062.50000	      1.30930e-02	
      8090.82000	      1.14603e-02	
      8119.32000	      1.39134e-02	
      8148.03000	      1.47931e-02	
      8176.93000	      1.49660e-02	
      8206.02000	      1.53293e-02	
      8235.31000	      1.61734e-02	
      8264.80000	      1.67261e-02	
      8294.49000	      1.67062e-02	
      8324.37000	      1.67420e-02	
      8354.45000	      1.76873e-02	
      8384.73000	      1.84633e-02	
      8415.21000	      1.85693e-02	
      8445.88000	      1.88194e-02	
      8476.75000	      1.66891e-02	
      8507.81000	      1.78814e-02	
      8539.07000	      1.74485e-02	
      8570.53000	      1.78593e-02	
      8602.18000	      1.62702e-02	
      8634.02000	      1.42737e-02	
      8666.06000	      1.30222e-02	
      8698.29000	      1.48523e-02	
      8730.71000	      1.53676e-02	
      8763.32000	      1.41834e-02	
      8796.13000	      1.55588e-02	
      8829.12000	      1.92075e-02	
      8862.30000	      1.86715e-02	
      8895.67000	      1.93858e-02	
      8929.23000	      2.00320e-02	
      8962.97000	      2.09111e-02	
      8996.90000	      2.31770e-02	
      9031.01000	      2.62857e-02	
      9065.30000	      2.75210e-02	
      9099.77000	      2.94844e-02	
      9134.43000	      3.06916e-02	
      9169.26000	      3.33889e-02	
      9204.26000	      3.48163e-02	
      9239.44000	      3.67405e-02	
      9274.80000	      3.49058e-02	
      9310.33000	      3.29442e-02	
      9346.03000	      3.67252e-02	
      9381.90000	      3.94910e-02	
      9417.93000	      3.93288e-02	
      9454.13000	      4.05727e-02	
      9490.50000	      4.29125e-02	
      9527.03000	      4.57767e-02	
      9563.72000	      4.61163e-02	
      9600.57000	      4.65632e-02	
      9637.58000	      4.53422e-02	
      9674.74000	      4.79395e-02	
      9712.06000	      4.86195e-02	
      9749.53000	      5.09089e-02	
      9787.15000	      5.49233e-02	
      9824.92000	      5.41447e-02	
      9862.84000	      4.91063e-02	
      9900.90000	      4.28943e-02	
      9939.10000	      3.75700e-02	
      9977.45000	      3.39895e-02	
     10015.90000	      3.63998e-02	
     10054.60000	      3.88515e-02	
     10093.30000	      4.34506e-02	
     10132.20000	      4.54230e-02	
     10171.20000	      4.53112e-02	
     10210.40000	      4.72644e-02	
     10249.60000	      4.73443e-02	
     10289.00000	      4.74164e-02	
     10328.60000	      5.16241e-02	
     10368.20000	      5.37161e-02	
     10408.00000	      5.49830e-02	
     10447.90000	      5.60142e-02	
     10487.90000	      5.76759e-02	
     10528.00000	      5.72119e-02	
     10568.20000	      5.56364e-02	
     10608.50000	      5.60432e-02	
     10649.00000	      5.88465e-02	
     10689.50000	      6.15674e-02	
     10730.10000	      6.45723e-02	
     10770.90000	      6.71768e-02	
     10811.70000	      6.86903e-02	
     10852.70000	      7.53643e-02	
     10893.70000	      7.61779e-02	
     10934.80000	      7.77331e-02	
     10976.00000	      7.86857e-02	
     11017.30000	      8.00984e-02	
     11058.70000	      7.73756e-02	
     11100.20000	      7.76848e-02	
     11141.70000	      7.68097e-02	
     11183.40000	      7.81922e-02	
     11225.10000	      7.95355e-02	
     11266.80000	      7.94976e-02	
     11308.70000	      7.81309e-02	
     11350.60000	      7.45883e-02	
     11392.60000	      7.39953e-02	
     11434.70000	      7.59403e-02	
     11476.80000	      8.17496e-02	
     11519.00000	      8.57652e-02	
     11561.20000	      8.53741e-02	
     11603.50000	      8.31277e-02	
     11645.90000	      8.06737e-02	
     11688.30000	      7.86979e-02	
     11730.80000	      7.36892e-02	
     11773.30000	      7.48497e-02	
     11815.90000	      7.66834e-02	
     11858.50000	      7.94070e-02	
     11901.20000	      7.82078e-02	
     11943.90000	      7.44748e-02	
     11986.60000	      7.19066e-02	
     12029.40000	      7.16693e-02	
     12072.20000	      7.47766e-02	
     12115.10000	      7.99722e-02	
     12158.00000	      8.15221e-02	
     12200.90000	      8.64143e-02	
     12243.80000	      8.85350e-02	
     12286.80000	      8.92716e-02	
     12329.80000	      8.67484e-02	
     12372.80000	      8.25339e-02	
     12415.90000	      8.02696e-02	
     12459.00000	      7.84336e-02	
     12502.00000	      8.19472e-02	
     12545.10000	      8.49150e-02	
     12588.30000	      9.00165e-02	
     12631.40000	      9.53701e-02	
     12674.50000	      9.85311e-02	
     12717.70000	      1.01342e-01	
     12760.90000	      1.01552e-01	
     12804.00000	      1.00313e-01	
     12847.20000	      1.00172e-01	
     12890.40000	      1.01096e-01	
     12933.60000	      9.90598e-02	
     12976.80000	      9.86693e-02	
     13019.90000	      9.90806e-02	
     13063.10000	      9.99259e-02	
     13106.30000	      9.89160e-02	
     13149.40000	      9.98721e-02	
     13192.60000	      1.01136e-01	
     13235.80000	      9.94258e-02	
     13278.90000	      9.09230e-02	
     13322.00000	      7.99630e-02	
     13365.10000	      6.96866e-02	
     13408.20000	      6.15449e-02	
     13451.30000	      5.81958e-02	
     13494.40000	      5.50428e-02	
     13537.40000	      5.31644e-02	
     13580.50000	      5.37503e-02	
     13623.50000	      5.55049e-02	
     13666.50000	      5.63406e-02	
     13709.40000	      5.74089e-02	
     13752.40000	      5.36522e-02	
     13795.30000	      5.43931e-02	
     13838.20000	      5.80770e-02	
     13881.00000	      6.12527e-02	
     13923.80000	      5.75784e-02	
     13966.60000	      5.44784e-02	
     14009.40000	      5.16889e-02	
     14052.10000	      5.11758e-02	
     14094.80000	      5.14230e-02	
     14137.50000	      5.08786e-02	
     14180.10000	      4.93636e-02	
     14222.70000	      4.96958e-02	
     14265.20000	      5.02964e-02	
     14307.70000	      4.90072e-02	
     14350.20000	      4.91148e-02	
     14392.60000	      4.96870e-02	
     14435.00000	      5.13180e-02	
     14477.30000	      5.25640e-02	
     14519.60000	      5.38346e-02	
     14561.90000	      5.37636e-02	
     14604.10000	      5.55451e-02	
     14646.20000	      5.46239e-02	
     14688.40000	      5.45407e-02	
     14730.40000	      5.54911e-02	
     14772.40000	      5.48939e-02	
     14814.40000	      5.66093e-02	
     14856.30000	      5.64887e-02	
     14898.20000	      5.89188e-02	
     14940.00000	      5.92762e-02	
     14981.70000	      6.07334e-02	
     15023.50000	      6.11426e-02	
     15065.10000	      6.27716e-02	
     15106.70000	      6.37987e-02	
     15148.20000	      6.49036e-02	
     15189.70000	      6.65664e-02	
     15231.20000	      6.74733e-02	
     15272.50000	      6.81776e-02	
     15313.80000	      7.05093e-02	
     15355.10000	      7.04441e-02	
     15396.30000	      7.27440e-02	
     15437.50000	      7.38959e-02	
     15478.50000	      7.48697e-02	
     15519.60000	      7.59458e-02	
     15560.50000	      7.67613e-02	
     15601.40000	      7.78279e-02	
     15642.30000	      7.84417e-02	
     15683.00000	      7.89227e-02	
     15723.80000	      7.93788e-02	
     15764.40000	      8.03727e-02	
     15805.00000	      8.01586e-02	
     15845.50000	      7.74085e-02	
     15886.00000	      7.67055e-02	
     15926.40000	      7.78790e-02	
     15966.80000	      7.91267e-02	
     16007.00000	      8.04471e-02	
     16047.30000	      8.06990e-02	
     16087.40000	      7.89728e-02	
     16127.50000	      7.80622e-02	
     16167.50000	      7.84719e-02	
     16207.50000	      8.04627e-02	
     16247.40000	      7.84975e-02	
     16287.20000	      7.88726e-02	
     16327.00000	      7.85218e-02	
     16366.70000	      7.97579e-02	
     16406.30000	      8.09169e-02	
     16445.90000	      8.30520e-02	
     16485.40000	      8.52518e-02	
     16524.80000	      8.54153e-02	
     16564.20000	      8.44788e-02	
     16603.50000	      8.45169e-02	
     16642.70000	      8.33773e-02	
     16681.90000	      8.49760e-02	
     16721.00000	      8.30761e-02	
     16760.10000	      8.43230e-02	
     16799.00000	      8.45799e-02	
     16837.90000	      8.49869e-02	
     16876.80000	      8.61971e-02	
     16915.60000	      8.51006e-02	
     16954.30000	      8.34121e-02	
     16992.90000	      8.43143e-02	
     17031.50000	      8.37580e-02	
     17070.00000	      8.36208e-02	
     17108.50000	      8.20436e-02	
     17146.90000	      8.12879e-02	
     17185.20000	      7.81543e-02	
     17223.50000	      7.78558e-02	
     17261.70000	      7.59897e-02	
     17299.80000	      7.38591e-02	
     17337.90000	      7.19401e-02	
     17375.90000	      7.15720e-02	
     17413.80000	      7.04797e-02	
     17451.70000	      6.94154e-02	
     17489.50000	      6.67691e-02	
     17527.20000	      6.50714e-02	
     17564.90000	      6.32411e-02	
     17602.50000	      6.26295e-02	
     17640.10000	      6.13552e-02	
     17677.60000	      5.93674e-02	
     17715.00000	      5.73767e-02	
     17752.40000	      5.66607e-02	
     17789.70000	      5.59729e-02	
     17826.90000	      5.40650e-02	
     17864.10000	      5.24292e-02	
     17901.20000	      5.20800e-02	
     17938.30000	      5.18385e-02	
     17975.30000	      5.12079e-02	
     18012.20000	      5.09246e-02	
     18049.10000	      4.87603e-02	
     18085.90000	      4.94688e-02	
     18122.70000	      4.93692e-02	
     18159.40000	      4.87180e-02	
     18196.00000	      4.93334e-02	
     18232.60000	      4.98830e-02	
     18269.10000	      4.97125e-02	
     18305.60000	      5.04151e-02	
     18342.00000	      4.80152e-02	
     18378.40000	      4.58327e-02	
     18414.70000	      4.74314e-02	
     18450.90000	      4.54911e-02	
     18487.10000	      4.75461e-02	
     18523.20000	      4.64199e-02	
     18559.20000	      4.33371e-02	
     18595.30000	      4.23985e-02	
     18631.20000	      4.32040e-02	
     18667.10000	      4.19746e-02	
     18702.90000	      4.13708e-02	
     18738.70000	      4.24367e-02	
     18774.40000	      4.67374e-02	
     18810.10000	      4.61330e-02	
     18845.70000	      4.58680e-02	
     18881.30000	      4.54136e-02	
     18916.80000	      4.67356e-02	
     18952.30000	      4.60155e-02	
     18987.70000	      4.61219e-02	
     19023.00000	      4.84861e-02	
     19058.30000	      5.13536e-02	
     19093.60000	      4.95753e-02	
     19128.80000	      5.15056e-02	
     19163.90000	      5.12782e-02	
     19199.00000	      5.19638e-02	
     19234.10000	      4.94939e-02	
     19269.10000	      4.78288e-02	
     19304.00000	      4.83411e-02	
     19338.90000	      4.68921e-02	
     19373.70000	      4.47176e-02	
     19408.50000	      4.38636e-02	
     19443.20000	      4.40051e-02	
     19477.90000	      4.45177e-02	
     19512.60000	      4.34695e-02	
     19547.20000	      4.44762e-02	
     19581.70000	      4.48885e-02	
     19616.20000	      4.52088e-02	
     19650.60000	      4.43909e-02	
     19685.00000	      4.34909e-02	
     19719.40000	      4.35862e-02	
     19753.70000	      4.22789e-02	
     19787.90000	      4.02219e-02	
     19822.10000	      4.14476e-02	
     19856.30000	      4.05877e-02	
     19890.40000	      4.17472e-02	
     19924.40000	      4.17722e-02	
     19958.50000	      4.15567e-02	
     19992.40000	      4.09631e-02	
     20026.40000	      4.16716e-02	
     20060.20000	      4.33309e-02	
     20094.10000	      4.27161e-02	
     20127.80000	      4.29900e-02	
     20161.60000	      4.32502e-02	
     20195.30000	      4.43136e-02	
     20228.90000	      4.47762e-02	
     20262.50000	      4.39017e-02	
     20296.00000	      4.44341e-02	
     20329.50000	      4.46579e-02	
     20363.00000	      4.54655e-02	
     20396.40000	      4.44393e-02	
     20429.80000	      4.61342e-02	
     20463.10000	      4.55776e-02	
     20496.40000	      4.55628e-02	
     20529.60000	      4.67897e-02	
     20562.80000	      4.76677e-02	
     20596.00000	      4.90981e-02	
     20629.10000	      4.88437e-02	
     20662.10000	      4.78409e-02	
     20695.10000	      4.84902e-02	
     20728.10000	      4.95000e-02	
     20761.00000	      4.98871e-02	
     20793.90000	      4.98859e-02	
     20826.70000	      4.98866e-02	
     20859.50000	      5.08712e-02	
     20892.20000	      5.07389e-02	
     20924.90000	      5.12379e-02	
     20957.50000	      5.18133e-02	
     20990.10000	      5.21412e-02	
     21022.70000	      5.25521e-02	
     21055.20000	      5.26753e-02	
     21087.70000	      5.31927e-02	
     21120.10000	      5.30929e-02	
     21152.40000	      5.38665e-02	
     21184.80000	      5.43512e-02	
     21217.10000	      5.42742e-02	
     21249.30000	      5.45123e-02	
     21281.50000	      5.49812e-02	
     21313.60000	      5.43214e-02	
     21345.70000	      5.48888e-02	
     21377.80000	      5.56977e-02	
     21409.80000	      5.52644e-02	
     21441.70000	      5.59552e-02	
     21473.60000	      5.56152e-02	
     21505.50000	      5.61531e-02	
     21537.30000	      5.47346e-02	
     21569.10000	      5.55263e-02	
     21600.80000	      5.54945e-02	
     21632.50000	      5.51358e-02	
     21664.10000	      5.61931e-02	
     21695.70000	      5.60481e-02	
     21727.20000	      5.47356e-02	
     21758.70000	      5.50684e-02	
     21790.20000	      5.60439e-02	
     21821.50000	      5.50771e-02	
     21852.90000	      5.54643e-02	
     21884.20000	      5.58442e-02	
     21915.40000	      5.62284e-02	
     21946.60000	      5.45132e-02	
     21977.80000	      5.51747e-02	
     22008.90000	      5.55241e-02	
     22039.90000	      5.44798e-02	
     22070.90000	      5.46025e-02	
     22101.90000	      5.52982e-02	
     22132.80000	      5.43521e-02	
     22163.60000	      5.47395e-02	
     22194.40000	      5.36013e-02	
     22225.20000	      5.46873e-02	
     22255.90000	      5.38112e-02	
     22286.50000	      5.44419e-02	
     22317.10000	      5.32435e-02	
     22347.70000	      5.35731e-02	
     22378.10000	      5.25635e-02	
     22408.60000	      5.34182e-02	
     22439.00000	      5.38471e-02	
     22469.30000	      5.37054e-02	
     22499.60000	      5.29874e-02	
     22529.90000	      5.19593e-02	
     22560.10000	      5.20262e-02	
     22590.20000	      5.22660e-02	
     22620.30000	      5.16421e-02	
     22650.30000	      5.19424e-02	
     22680.30000	      5.15213e-02	
     22710.20000	      5.11809e-02	
     22740.10000	      5.15234e-02	
     22769.90000	      5.11610e-02	
     22799.70000	      5.06448e-02	
     22829.40000	      5.01530e-02	
     22859.10000	      5.12080e-02	
     22888.70000	      4.97522e-02	
     22918.30000	      4.78556e-02	
     22947.80000	      4.44435e-02	
     22977.30000	      4.25642e-02	
     23006.70000	      4.13378e-02	
     23036.00000	      4.15380e-02	
     23065.30000	      4.36246e-02	
     23094.60000	      4.32119e-02	
     23123.80000	      4.30570e-02	
     23153.00000	      4.31378e-02	
     23182.10000	      4.23454e-02	
     23211.10000	      4.11696e-02	
     23240.10000	      4.06906e-02	
     23269.10000	      3.95983e-02	
     23298.00000	      3.94195e-02	
     23326.80000	      3.99623e-02	
     23355.60000	      3.94208e-02	
     23384.40000	      3.99549e-02	
     23413.10000	      4.04397e-02	
     23441.70000	      3.95305e-02	
     23470.30000	      4.09055e-02	
     23498.90000	      3.94744e-02	
     23527.40000	      3.87204e-02	
     23555.90000	      3.78521e-02	
     23584.30000	      3.77845e-02	
     23612.70000	      3.70544e-02	
     23641.00000	      3.80269e-02	
     23669.30000	      3.85476e-02	
     23697.50000	      3.73239e-02	
     23725.70000	      3.75972e-02	
     23753.90000	      3.82033e-02	
     23782.00000	      3.81287e-02	
     23810.10000	      3.82633e-02	
     23838.10000	      3.61977e-02	
     23866.10000	      3.60376e-02	
     23894.10000	      3.57704e-02	
     23922.00000	      3.69808e-02	
     23949.90000	      3.57274e-02	
     23977.70000	      3.56923e-02	
     24005.50000	      3.59299e-02	
     24033.30000	      3.41485e-02	
     24061.10000	      3.42037e-02	
     24088.80000	      3.44125e-02	
     24116.50000	      3.34798e-02	
     24144.10000	      3.30989e-02	
     24171.80000	      3.30510e-02	
     24199.40000	      3.35887e-02	
     24227.00000	      3.41702e-02	
     24254.50000	      3.24490e-02	
     24282.10000	      3.19347e-02	
     24309.60000	      3.16943e-02	
     24337.10000	      3.03755e-02	
     24364.60000	      3.18907e-02	
     24392.10000	      3.00918e-02	
     24419.50000	      3.03104e-02	
     24447.00000	      2.89410e-02	
     24474.40000	      2.86239e-02	
     24501.90000	      2.92166e-02	
     24529.30000	      2.90705e-02	
     24556.80000	      2.93877e-02	
     24584.20000	      2.86906e-02	
     24611.60000	      2.77828e-02	
     24639.10000	      2.74891e-02	
     24666.50000	      2.73132e-02	
     24694.00000	      2.63742e-02	
     24721.50000	      2.58124e-02	
     24749.00000	      2.67917e-02	
     24776.50000	      2.66925e-02	
     24804.00000	      2.79242e-02	
     24831.60000	      2.60080e-02	
     24859.10000	      2.65156e-02	
     24886.80000	      2.65527e-02	
     24914.40000	      2.40922e-02	
     24942.10000	      2.46507e-02	
     24969.80000	      2.62493e-02	
     24997.60000	      2.49065e-02	
     25025.40000	      2.46988e-02	
     25053.30000	      2.37488e-02	
     25081.20000	      2.28975e-02	
     25109.20000	      2.50929e-02	
     25137.20000	      2.30834e-02	
     25165.30000	      2.38105e-02	
     25193.50000	      2.51999e-02	
     25221.70000	      2.45019e-02	
     25250.10000	      2.19843e-02	
     25278.50000	      2.11022e-02	
     25307.00000	      2.04173e-02	
     25335.60000	      2.00632e-02	
     25364.30000	      2.19769e-02	
     25393.10000	      2.23992e-02	
     25422.00000	      2.26751e-02	
     25451.00000	      2.21508e-02	
     25480.10000	      1.63620e-02	
     25509.40000	      2.94022e-02	
#time:0.015813
