# The SpeX Prism Spectral Libraries
# spty = Opt:L3  (Spectral type)
#
#     WAVELENGTH	#            FLUX	
#     (ANGSTROM)	#   (ERG/CM2/S/A)	
################	#################	
      6532.28000	     -1.77220e-02	
      6554.32000	      1.70763e-02	
      6576.27000	      1.24599e-02	
      6598.12000	      9.53835e-03	
      6619.90000	     -3.26561e-04	
      6641.60000	     -7.13775e-03	
      6663.25000	      1.22431e-02	
      6684.85000	      1.50483e-02	
      6706.40000	     -3.06677e-03	
      6727.92000	      5.84832e-03	
      6749.42000	      6.58812e-03	
      6770.90000	      9.05217e-04	
      6792.36000	     -6.95046e-03	
      6813.83000	     -4.56378e-04	
      6835.31000	      9.27388e-03	
      6856.80000	      1.42236e-02	
      6878.31000	     -7.52478e-03	
      6899.84000	     -8.50627e-03	
      6921.41000	      3.57170e-03	
      6943.03000	      2.14804e-03	
      6964.69000	      1.08895e-02	
      6986.41000	      3.84570e-03	
      7008.18000	      3.97302e-03	
      7030.03000	      3.50923e-03	
      7051.94000	     -2.54560e-03	
      7073.94000	      3.01221e-04	
      7096.01000	      6.24191e-03	
      7118.18000	      7.92406e-03	
      7140.44000	      7.37653e-03	
      7162.80000	      9.10301e-03	
      7185.26000	      6.50938e-03	
      7207.83000	      1.08215e-02	
      7230.52000	     -3.08537e-03	
      7253.32000	      7.11553e-03	
      7276.25000	      1.03112e-02	
      7299.30000	      4.56501e-03	
      7322.48000	      1.03066e-02	
      7345.80000	      3.19903e-03	
      7369.25000	      1.19328e-02	
      7392.84000	      2.73568e-03	
      7416.58000	      4.85590e-03	
      7440.47000	      1.09804e-02	
      7464.50000	      1.32141e-03	
      7488.70000	      1.34053e-02	
      7513.05000	      1.10646e-02	
      7537.56000	      1.28484e-03	
      7562.23000	      9.65771e-03	
      7587.07000	      4.20262e-03	
      7612.07000	      7.05629e-03	
      7637.25000	     -2.91876e-03	
      7662.59000	      2.02856e-03	
      7688.12000	      3.27894e-04	
      7713.82000	      2.99542e-03	
      7739.70000	      4.76412e-03	
      7765.75000	      2.95987e-03	
      7791.99000	      6.56384e-03	
      7818.42000	      5.53588e-03	
      7845.03000	      1.03690e-02	
      7871.82000	      9.79088e-03	
      7898.81000	      1.25233e-02	
      7925.98000	      1.00643e-02	
      7953.34000	      8.03002e-03	
      7980.90000	      1.03689e-02	
      8008.64000	      7.57634e-03	
      8036.58000	      1.24421e-02	
      8064.71000	      1.60721e-02	
      8093.04000	      1.48040e-02	
      8121.56000	      1.84075e-02	
      8150.28000	      1.49461e-02	
      8179.20000	      1.37848e-02	
      8208.31000	      1.88380e-02	
      8237.62000	      2.08443e-02	
      8267.12000	      2.20742e-02	
      8296.82000	      1.99166e-02	
      8326.72000	      1.81342e-02	
      8356.82000	      2.30914e-02	
      8387.11000	      1.85874e-02	
      8417.60000	      1.92650e-02	
      8448.29000	      2.06381e-02	
      8479.17000	      1.83054e-02	
      8510.25000	      1.84956e-02	
      8541.53000	      1.98605e-02	
      8573.00000	      1.95922e-02	
      8604.66000	      1.72263e-02	
      8636.52000	      1.56023e-02	
      8668.58000	      1.48139e-02	
      8700.82000	      1.15352e-02	
      8733.26000	      1.46946e-02	
      8765.89000	      1.40683e-02	
      8798.71000	      2.33755e-02	
      8831.72000	      1.95780e-02	
      8864.91000	      2.14027e-02	
      8898.30000	      1.92338e-02	
      8931.87000	      2.02186e-02	
      8965.63000	      2.23954e-02	
      8999.57000	      2.47542e-02	
      9033.69000	      2.38556e-02	
      9068.00000	      2.50080e-02	
      9102.48000	      2.97352e-02	
      9137.15000	      3.34417e-02	
      9171.99000	      3.25784e-02	
      9207.01000	      3.35533e-02	
      9242.21000	      3.21620e-02	
      9277.58000	      3.44414e-02	
      9313.12000	      3.67369e-02	
      9348.83000	      3.90678e-02	
      9384.71000	      3.77172e-02	
      9420.76000	      3.89626e-02	
      9456.98000	      4.43804e-02	
      9493.36000	      4.26053e-02	
      9529.90000	      4.50665e-02	
      9566.60000	      4.31379e-02	
      9603.47000	      4.42248e-02	
      9640.49000	      4.77979e-02	
      9677.66000	      4.70426e-02	
      9714.99000	      4.78015e-02	
      9752.47000	      5.08831e-02	
      9790.11000	      5.23778e-02	
      9827.89000	      5.14777e-02	
      9865.81000	      4.64120e-02	
      9903.89000	      4.12761e-02	
      9942.10000	      3.25986e-02	
      9980.46000	      3.24233e-02	
     10019.00000	      3.66433e-02	
     10057.60000	      3.91867e-02	
     10096.40000	      4.24801e-02	
     10135.30000	      4.31507e-02	
     10174.30000	      4.50092e-02	
     10213.40000	      4.52490e-02	
     10252.70000	      4.63486e-02	
     10292.10000	      4.65153e-02	
     10331.70000	      5.02809e-02	
     10371.30000	      5.17071e-02	
     10411.10000	      5.49423e-02	
     10451.00000	      5.66064e-02	
     10491.00000	      5.72693e-02	
     10531.10000	      5.67932e-02	
     10571.30000	      5.63866e-02	
     10611.70000	      5.71408e-02	
     10652.10000	      5.95151e-02	
     10692.70000	      6.14433e-02	
     10733.30000	      6.45390e-02	
     10774.10000	      6.59852e-02	
     10814.90000	      6.93840e-02	
     10855.90000	      7.44843e-02	
     10896.90000	      7.63667e-02	
     10938.00000	      7.47131e-02	
     10979.30000	      7.42746e-02	
     11020.60000	      7.58051e-02	
     11062.00000	      7.49316e-02	
     11103.40000	      7.37111e-02	
     11145.00000	      7.62423e-02	
     11186.60000	      7.63555e-02	
     11228.30000	      7.93643e-02	
     11270.10000	      7.86034e-02	
     11312.00000	      7.54771e-02	
     11353.90000	      7.06902e-02	
     11395.90000	      7.12382e-02	
     11438.00000	      7.28969e-02	
     11480.10000	      8.11497e-02	
     11522.30000	      8.23756e-02	
     11564.50000	      8.30874e-02	
     11606.90000	      7.93539e-02	
     11649.20000	      7.68321e-02	
     11691.70000	      7.45119e-02	
     11734.10000	      6.89747e-02	
     11776.60000	      7.21881e-02	
     11819.20000	      7.51846e-02	
     11861.80000	      7.73546e-02	
     11904.50000	      7.57689e-02	
     11947.20000	      7.23769e-02	
     11990.00000	      7.07799e-02	
     12032.70000	      7.15869e-02	
     12075.60000	      7.25891e-02	
     12118.40000	      7.79580e-02	
     12161.30000	      8.23699e-02	
     12204.20000	      8.52638e-02	
     12247.20000	      8.69947e-02	
     12290.20000	      8.80267e-02	
     12333.20000	      8.60219e-02	
     12376.20000	      8.12074e-02	
     12419.30000	      7.84178e-02	
     12462.30000	      7.74621e-02	
     12505.40000	      8.12982e-02	
     12548.50000	      8.75183e-02	
     12591.60000	      9.21578e-02	
     12634.80000	      9.59358e-02	
     12677.90000	      9.92149e-02	
     12721.10000	      1.02460e-01	
     12764.20000	      1.03670e-01	
     12807.40000	      9.90251e-02	
     12850.60000	      9.75882e-02	
     12893.80000	      1.00022e-01	
     12937.00000	      9.82074e-02	
     12980.10000	      1.00625e-01	
     13023.30000	      9.96883e-02	
     13066.50000	      9.91666e-02	
     13109.70000	      9.96072e-02	
     13152.80000	      9.99403e-02	
     13196.00000	      9.91486e-02	
     13239.10000	      9.56475e-02	
     13282.30000	      8.58916e-02	
     13325.40000	      7.52330e-02	
     13368.50000	      6.45285e-02	
     13411.60000	      5.91585e-02	
     13454.70000	      5.38834e-02	
     13497.80000	      5.52240e-02	
     13540.80000	      5.33373e-02	
     13583.80000	      5.48064e-02	
     13626.80000	      5.64339e-02	
     13669.80000	      5.53530e-02	
     13712.80000	      5.26375e-02	
     13755.70000	      5.41929e-02	
     13798.60000	      5.50908e-02	
     13841.50000	      5.82761e-02	
     13884.40000	      5.75980e-02	
     13927.20000	      5.64490e-02	
     13970.00000	      5.39459e-02	
     14012.70000	      5.06537e-02	
     14055.50000	      4.96951e-02	
     14098.20000	      5.05279e-02	
     14140.80000	      4.89573e-02	
     14183.40000	      4.76341e-02	
     14226.00000	      4.66614e-02	
     14268.50000	      4.63428e-02	
     14311.10000	      4.61967e-02	
     14353.50000	      4.87299e-02	
     14395.90000	      4.75332e-02	
     14438.30000	      4.89801e-02	
     14480.70000	      4.92126e-02	
     14522.90000	      5.13417e-02	
     14565.20000	      5.09944e-02	
     14607.40000	      5.16698e-02	
     14649.50000	      5.31528e-02	
     14691.70000	      5.08371e-02	
     14733.70000	      5.19273e-02	
     14775.70000	      5.29015e-02	
     14817.70000	      5.36987e-02	
     14859.60000	      5.42024e-02	
     14901.50000	      5.74218e-02	
     14943.30000	      5.50878e-02	
     14985.00000	      5.67874e-02	
     15026.70000	      5.93124e-02	
     15068.40000	      5.83618e-02	
     15110.00000	      6.08154e-02	
     15151.50000	      6.14446e-02	
     15193.00000	      6.28729e-02	
     15234.40000	      6.43872e-02	
     15275.80000	      6.41482e-02	
     15317.10000	      6.62782e-02	
     15358.30000	      6.56339e-02	
     15399.50000	      6.65491e-02	
     15440.70000	      6.82040e-02	
     15481.80000	      6.89713e-02	
     15522.80000	      7.12123e-02	
     15563.70000	      7.12282e-02	
     15604.60000	      7.39575e-02	
     15645.50000	      7.32941e-02	
     15686.20000	      7.47988e-02	
     15727.00000	      7.60687e-02	
     15767.60000	      7.61190e-02	
     15808.20000	      7.54216e-02	
     15848.70000	      7.33066e-02	
     15889.20000	      7.44736e-02	
     15929.60000	      7.52478e-02	
     15969.90000	      7.62027e-02	
     16010.20000	      7.70518e-02	
     16050.40000	      7.66921e-02	
     16090.60000	      7.66808e-02	
     16130.60000	      7.50145e-02	
     16170.70000	      7.58854e-02	
     16210.60000	      7.66368e-02	
     16250.50000	      7.60221e-02	
     16290.30000	      7.65622e-02	
     16330.10000	      7.66261e-02	
     16369.80000	      7.79393e-02	
     16409.40000	      7.89895e-02	
     16449.00000	      8.05868e-02	
     16488.50000	      8.27315e-02	
     16527.90000	      8.13012e-02	
     16567.30000	      8.31079e-02	
     16606.60000	      8.28659e-02	
     16645.80000	      8.37409e-02	
     16685.00000	      8.28729e-02	
     16724.10000	      8.25282e-02	
     16763.10000	      8.29268e-02	
     16802.10000	      8.36721e-02	
     16841.00000	      8.33891e-02	
     16879.80000	      8.28331e-02	
     16918.60000	      8.09596e-02	
     16957.30000	      8.30289e-02	
     16996.00000	      8.18650e-02	
     17034.50000	      8.18044e-02	
     17073.10000	      8.07843e-02	
     17111.50000	      7.90825e-02	
     17149.90000	      7.71381e-02	
     17188.20000	      7.52880e-02	
     17226.50000	      7.41266e-02	
     17264.70000	      7.28664e-02	
     17302.80000	      7.06029e-02	
     17340.80000	      6.93725e-02	
     17378.80000	      6.77560e-02	
     17416.80000	      6.40492e-02	
     17454.60000	      6.49772e-02	
     17492.40000	      6.25973e-02	
     17530.20000	      6.10417e-02	
     17567.90000	      5.97085e-02	
     17605.50000	      5.85681e-02	
     17643.00000	      5.79740e-02	
     17680.50000	      5.66803e-02	
     17717.90000	      5.47440e-02	
     17755.30000	      5.33363e-02	
     17792.60000	      5.16113e-02	
     17829.80000	      4.97339e-02	
     17867.00000	      4.98194e-02	
     17904.10000	      4.89467e-02	
     17941.20000	      4.81879e-02	
     17978.20000	      4.79848e-02	
     18015.10000	      4.73503e-02	
     18052.00000	      4.75655e-02	
     18088.80000	      4.63187e-02	
     18125.60000	      4.78748e-02	
     18162.30000	      4.69068e-02	
     18198.90000	      4.80804e-02	
     18235.50000	      4.68184e-02	
     18272.00000	      4.75952e-02	
     18308.50000	      4.95479e-02	
     18344.90000	      4.92403e-02	
     18381.20000	      4.75310e-02	
     18417.50000	      4.74996e-02	
     18453.70000	      4.40288e-02	
     18489.90000	      4.38665e-02	
     18526.00000	      4.36069e-02	
     18562.10000	      4.14936e-02	
     18598.10000	      3.95336e-02	
     18634.00000	      3.88482e-02	
     18669.90000	      4.16750e-02	
     18705.70000	      4.38760e-02	
     18741.50000	      4.57223e-02	
     18777.20000	      4.39475e-02	
     18812.90000	      4.23535e-02	
     18848.50000	      4.42541e-02	
     18884.10000	      4.21289e-02	
     18919.60000	      4.49110e-02	
     18955.10000	      4.35282e-02	
     18990.50000	      4.53234e-02	
     19025.80000	      4.55273e-02	
     19061.10000	      4.81452e-02	
     19096.30000	      4.79020e-02	
     19131.50000	      4.83360e-02	
     19166.70000	      4.81146e-02	
     19201.80000	      4.73611e-02	
     19236.80000	      4.51009e-02	
     19271.80000	      4.59704e-02	
     19306.70000	      4.51977e-02	
     19341.60000	      4.47664e-02	
     19376.40000	      4.28815e-02	
     19411.20000	      4.17485e-02	
     19446.00000	      4.17622e-02	
     19480.60000	      4.12687e-02	
     19515.30000	      4.12753e-02	
     19549.90000	      4.17059e-02	
     19584.40000	      4.06783e-02	
     19618.90000	      4.12288e-02	
     19653.30000	      4.14000e-02	
     19687.70000	      4.12283e-02	
     19722.10000	      4.01610e-02	
     19756.40000	      3.91666e-02	
     19790.60000	      3.73411e-02	
     19824.80000	      3.75621e-02	
     19859.00000	      3.80969e-02	
     19893.10000	      3.76899e-02	
     19927.10000	      3.85883e-02	
     19961.10000	      3.83534e-02	
     19995.10000	      3.85804e-02	
     20029.00000	      3.87472e-02	
     20062.90000	      4.07582e-02	
     20096.70000	      4.02883e-02	
     20130.50000	      3.99896e-02	
     20164.20000	      4.09066e-02	
     20197.90000	      4.18614e-02	
     20231.50000	      4.11003e-02	
     20265.10000	      4.10636e-02	
     20298.70000	      4.07303e-02	
     20332.20000	      4.12704e-02	
     20365.60000	      4.21482e-02	
     20399.00000	      4.16914e-02	
     20432.40000	      4.29403e-02	
     20465.70000	      4.26615e-02	
     20499.00000	      4.26062e-02	
     20532.20000	      4.23269e-02	
     20565.40000	      4.41615e-02	
     20598.50000	      4.38404e-02	
     20631.60000	      4.40350e-02	
     20664.70000	      4.42322e-02	
     20697.70000	      4.43088e-02	
     20730.70000	      4.50726e-02	
     20763.60000	      4.49261e-02	
     20796.40000	      4.58480e-02	
     20829.30000	      4.61226e-02	
     20862.00000	      4.67868e-02	
     20894.80000	      4.71372e-02	
     20927.40000	      4.76487e-02	
     20960.10000	      4.77935e-02	
     20992.70000	      4.87362e-02	
     21025.20000	      4.80037e-02	
     21057.70000	      4.91967e-02	
     21090.20000	      4.91349e-02	
     21122.60000	      4.98961e-02	
     21155.00000	      4.98229e-02	
     21187.30000	      5.01840e-02	
     21219.60000	      5.02675e-02	
     21251.80000	      5.06747e-02	
     21284.00000	      5.14311e-02	
     21316.10000	      5.11201e-02	
     21348.20000	      5.16341e-02	
     21380.30000	      5.15246e-02	
     21412.30000	      5.18362e-02	
     21444.20000	      5.29052e-02	
     21476.10000	      5.18954e-02	
     21508.00000	      5.18727e-02	
     21539.80000	      5.20986e-02	
     21571.60000	      5.24699e-02	
     21603.30000	      5.15443e-02	
     21635.00000	      5.25691e-02	
     21666.60000	      5.26571e-02	
     21698.20000	      5.24015e-02	
     21729.70000	      5.17445e-02	
     21761.20000	      5.18563e-02	
     21792.60000	      5.21288e-02	
     21824.00000	      5.23699e-02	
     21855.30000	      5.24003e-02	
     21886.60000	      5.21117e-02	
     21917.90000	      5.26053e-02	
     21949.10000	      5.19003e-02	
     21980.20000	      5.27461e-02	
     22011.30000	      5.22946e-02	
     22042.30000	      5.22285e-02	
     22073.30000	      5.19787e-02	
     22104.30000	      5.24878e-02	
     22135.20000	      5.24081e-02	
     22166.00000	      5.14724e-02	
     22196.80000	      5.18361e-02	
     22227.60000	      5.19278e-02	
     22258.30000	      5.21651e-02	
     22288.90000	      5.13729e-02	
     22319.50000	      5.14337e-02	
     22350.00000	      5.25868e-02	
     22380.50000	      5.09618e-02	
     22411.00000	      5.04377e-02	
     22441.40000	      5.09344e-02	
     22471.70000	      5.04169e-02	
     22502.00000	      5.04250e-02	
     22532.20000	      5.02510e-02	
     22562.40000	      5.00087e-02	
     22592.50000	      5.08362e-02	
     22622.60000	      5.05382e-02	
     22652.70000	      4.90668e-02	
     22682.60000	      4.92717e-02	
     22712.60000	      4.80962e-02	
     22742.40000	      4.86225e-02	
     22772.30000	      4.87412e-02	
     22802.00000	      4.76116e-02	
     22831.80000	      4.74679e-02	
     22861.40000	      4.94730e-02	
     22891.00000	      4.84198e-02	
     22920.60000	      4.42465e-02	
     22950.10000	      4.13682e-02	
     22979.60000	      3.89620e-02	
     23009.00000	      3.90388e-02	
     23038.30000	      4.10601e-02	
     23067.60000	      4.04666e-02	
     23096.90000	      4.11112e-02	
     23126.10000	      4.09561e-02	
     23155.20000	      4.02107e-02	
     23184.30000	      3.88662e-02	
     23213.40000	      3.94647e-02	
     23242.40000	      3.68152e-02	
     23271.30000	      3.64546e-02	
     23300.20000	      3.63393e-02	
     23329.10000	      3.73525e-02	
     23357.90000	      3.70146e-02	
     23386.60000	      3.83768e-02	
     23415.30000	      3.78603e-02	
     23444.00000	      3.76711e-02	
     23472.60000	      3.76537e-02	
     23501.10000	      3.77994e-02	
     23529.60000	      3.60597e-02	
     23558.10000	      3.49758e-02	
     23586.50000	      3.46817e-02	
     23614.90000	      3.51106e-02	
     23643.20000	      3.50333e-02	
     23671.50000	      3.53154e-02	
     23699.70000	      3.74229e-02	
     23727.90000	      3.65330e-02	
     23756.10000	      3.43466e-02	
     23784.20000	      3.63787e-02	
     23812.30000	      3.47853e-02	
     23840.30000	      3.40030e-02	
     23868.30000	      3.38187e-02	
     23896.30000	      3.40803e-02	
     23924.20000	      3.39704e-02	
     23952.10000	      3.44821e-02	
     23979.90000	      3.44066e-02	
     24007.70000	      3.25469e-02	
     24035.50000	      3.29639e-02	
     24063.20000	      3.16118e-02	
     24091.00000	      3.19533e-02	
     24118.60000	      3.03304e-02	
     24146.30000	      3.16473e-02	
     24173.90000	      3.11686e-02	
     24201.50000	      3.05416e-02	
     24229.10000	      2.99350e-02	
     24256.70000	      2.90689e-02	
     24284.20000	      2.99466e-02	
     24311.80000	      2.97012e-02	
     24339.30000	      2.90494e-02	
     24366.70000	      2.77757e-02	
     24394.20000	      2.86420e-02	
     24421.70000	      2.74371e-02	
     24449.10000	      2.75725e-02	
     24476.60000	      2.68291e-02	
     24504.00000	      2.79748e-02	
     24531.50000	      2.57935e-02	
     24558.90000	      2.51509e-02	
     24586.30000	      2.78108e-02	
     24613.80000	      2.65067e-02	
     24641.20000	      2.62515e-02	
     24668.70000	      2.62584e-02	
     24696.10000	      2.41359e-02	
     24723.60000	      2.43367e-02	
     24751.10000	      2.33978e-02	
     24778.60000	      2.39685e-02	
     24806.20000	      2.36320e-02	
     24833.70000	      2.48407e-02	
     24861.30000	      2.29162e-02	
     24888.90000	      2.30960e-02	
     24916.60000	      2.27040e-02	
     24944.30000	      2.33501e-02	
     24972.00000	      2.28458e-02	
     24999.80000	      2.36581e-02	
     25027.60000	      2.15129e-02	
     25055.40000	      2.19870e-02	
     25083.40000	      2.12117e-02	
     25111.40000	      2.07231e-02	
     25139.40000	      2.01527e-02	
     25167.50000	      2.26339e-02	
     25195.70000	      2.36697e-02	
     25224.00000	      2.35416e-02	
     25252.30000	      2.06702e-02	
     25280.70000	      2.04653e-02	
     25309.20000	      2.47756e-02	
     25337.80000	      1.81278e-02	
     25366.50000	      2.49515e-02	
     25395.30000	      1.95024e-02	
     25424.20000	      2.30665e-02	
     25453.30000	      1.95552e-02	
     25482.40000	      2.24339e-02	
     25511.70000	      2.29864e-02	
     25541.10000	      2.32776e-02	
     25570.60000	      2.97149e-02	
     25600.30000	      2.25789e-02	
     25630.10000	      2.72425e-02	
#time:0.015890
