# The SpeX Prism Spectral Libraries
# spty = Opt:L6  (Spectral type)
#
#     WAVELENGTH	#            FLUX	
#     (ANGSTROM)	#   (ERG/CM2/S/A)	
################	#################	
      6522.49000	      3.66898e-02	
      6544.58000	     -5.22994e-03	
      6566.56000	      1.25212e-02	
      6588.45000	      7.74403e-03	
      6610.26000	      8.69543e-04	
      6632.00000	      6.91930e-04	
      6653.67000	     -2.67400e-02	
      6675.29000	      2.38355e-02	
      6696.86000	      6.41166e-03	
      6718.40000	      5.22229e-03	
      6739.90000	     -7.76531e-03	
      6761.39000	      9.68320e-03	
      6782.86000	      1.53864e-02	
      6804.33000	      5.70486e-03	
      6825.80000	      1.04678e-02	
      6847.28000	     -6.30414e-03	
      6868.78000	     -4.26271e-03	
      6890.30000	     -1.40694e-03	
      6911.86000	      1.53902e-02	
      6933.45000	     -9.14158e-03	
      6955.09000	      8.27608e-03	
      6976.78000	      8.14767e-03	
      6998.53000	      3.04025e-03	
      7020.35000	      3.79804e-03	
      7042.23000	     -4.25547e-03	
      7064.19000	      5.48011e-04	
      7086.23000	      3.85478e-03	
      7108.35000	      8.05502e-03	
      7130.57000	      1.78121e-02	
      7152.89000	      8.19793e-03	
      7175.30000	      1.36542e-02	
      7197.83000	      2.69893e-03	
      7220.46000	      1.32651e-03	
      7243.21000	      7.31345e-03	
      7266.08000	      1.84769e-02	
      7289.08000	      1.68900e-02	
      7312.20000	     -1.55680e-03	
      7335.45000	      6.45774e-03	
      7358.85000	      1.22394e-02	
      7382.38000	      7.85242e-03	
      7406.05000	      1.01700e-03	
      7429.87000	      5.51797e-03	
      7453.84000	      3.66589e-03	
      7477.97000	      5.22899e-03	
      7502.24000	      7.72680e-03	
      7526.68000	      4.86642e-03	
      7551.28000	      4.43868e-03	
      7576.05000	      5.81164e-03	
      7600.98000	      2.21404e-03	
      7626.08000	      5.59190e-03	
      7651.35000	      5.28982e-03	
      7676.79000	     -5.65860e-03	
      7702.42000	     -5.75133e-04	
      7728.21000	     -4.45030e-03	
      7754.19000	      6.21459e-05	
      7780.35000	      2.17197e-03	
      7806.69000	      2.23695e-03	
      7833.22000	      5.01494e-03	
      7859.93000	      6.06746e-04	
      7886.83000	      4.87517e-03	
      7913.92000	      2.85448e-03	
      7941.20000	      2.57226e-03	
      7968.67000	      5.89719e-03	
      7996.33000	      7.81243e-03	
      8024.19000	      8.17195e-03	
      8052.23000	      9.57324e-03	
      8080.47000	      1.11723e-02	
      8108.91000	      8.76679e-03	
      8137.54000	      1.38197e-02	
      8166.37000	      9.84520e-03	
      8195.39000	      1.26672e-02	
      8224.62000	      1.37194e-02	
      8254.03000	      1.83574e-02	
      8283.65000	      1.39472e-02	
      8313.46000	      1.58424e-02	
      8343.47000	      1.75092e-02	
      8373.67000	      1.86851e-02	
      8404.08000	      1.64311e-02	
      8434.68000	      1.99787e-02	
      8465.47000	      1.93181e-02	
      8496.47000	      2.10196e-02	
      8527.66000	      2.13614e-02	
      8559.04000	      2.08536e-02	
      8590.62000	      1.85870e-02	
      8622.39000	      1.87599e-02	
      8654.36000	      1.73843e-02	
      8686.52000	      1.29241e-02	
      8718.87000	      1.61635e-02	
      8751.42000	      1.73471e-02	
      8784.15000	      1.79125e-02	
      8817.08000	      2.05099e-02	
      8850.19000	      1.81426e-02	
      8883.49000	      2.20024e-02	
      8916.98000	      2.02418e-02	
      8950.65000	      2.19133e-02	
      8984.51000	      2.18280e-02	
      9018.56000	      2.44669e-02	
      9052.78000	      2.54782e-02	
      9087.19000	      2.75898e-02	
      9121.78000	      2.83267e-02	
      9156.54000	      2.99560e-02	
      9191.48000	      3.23423e-02	
      9226.60000	      3.43787e-02	
      9261.90000	      3.55970e-02	
      9297.36000	      3.52508e-02	
      9333.00000	      3.40883e-02	
      9368.80000	      3.73316e-02	
      9404.78000	      3.87813e-02	
      9440.92000	      4.20331e-02	
      9477.23000	      4.45569e-02	
      9513.70000	      4.57392e-02	
      9550.33000	      4.40748e-02	
      9587.12000	      4.48045e-02	
      9624.07000	      4.67531e-02	
      9661.18000	      4.51600e-02	
      9698.44000	      4.69920e-02	
      9735.86000	      4.68976e-02	
      9773.42000	      4.89127e-02	
      9811.14000	      5.17390e-02	
      9849.00000	      5.18665e-02	
      9887.01000	      4.86560e-02	
      9925.16000	      4.44547e-02	
      9963.46000	      4.14342e-02	
     10001.90000	      3.89474e-02	
     10040.50000	      4.33196e-02	
     10079.20000	      4.17814e-02	
     10118.00000	      4.41288e-02	
     10157.00000	      4.40583e-02	
     10196.10000	      4.53841e-02	
     10235.30000	      4.67944e-02	
     10274.70000	      4.79284e-02	
     10314.20000	      5.03752e-02	
     10353.80000	      5.32937e-02	
     10393.50000	      5.24913e-02	
     10433.30000	      5.80507e-02	
     10473.30000	      5.85964e-02	
     10513.30000	      5.79937e-02	
     10553.50000	      5.78097e-02	
     10593.80000	      6.07121e-02	
     10634.20000	      6.13073e-02	
     10674.70000	      6.41993e-02	
     10715.30000	      6.46140e-02	
     10756.00000	      6.55496e-02	
     10796.80000	      6.55674e-02	
     10837.70000	      6.79885e-02	
     10878.70000	      6.84907e-02	
     10919.80000	      7.16315e-02	
     10961.00000	      7.13178e-02	
     11002.30000	      7.28321e-02	
     11043.60000	      7.26097e-02	
     11085.10000	      7.19701e-02	
     11126.60000	      6.99654e-02	
     11168.20000	      7.22542e-02	
     11209.90000	      7.02626e-02	
     11251.60000	      7.26293e-02	
     11293.40000	      7.43786e-02	
     11335.30000	      7.23630e-02	
     11377.30000	      6.81365e-02	
     11419.30000	      7.10036e-02	
     11461.40000	      7.00659e-02	
     11503.60000	      7.45875e-02	
     11545.80000	      7.72423e-02	
     11588.10000	      7.72440e-02	
     11630.50000	      7.65665e-02	
     11672.90000	      7.28621e-02	
     11715.30000	      7.10711e-02	
     11757.80000	      6.82004e-02	
     11800.40000	      6.97535e-02	
     11843.00000	      7.36319e-02	
     11885.60000	      7.76056e-02	
     11928.30000	      7.86926e-02	
     11971.00000	      7.80852e-02	
     12013.80000	      7.41297e-02	
     12056.60000	      7.37933e-02	
     12099.40000	      7.90856e-02	
     12142.30000	      8.04314e-02	
     12185.20000	      8.36702e-02	
     12228.20000	      8.47250e-02	
     12271.10000	      9.12243e-02	
     12314.10000	      9.00416e-02	
     12357.20000	      8.66906e-02	
     12400.20000	      8.51319e-02	
     12443.30000	      8.27016e-02	
     12486.30000	      8.22995e-02	
     12529.40000	      8.62493e-02	
     12572.60000	      8.82732e-02	
     12615.70000	      9.30558e-02	
     12658.80000	      9.84877e-02	
     12702.00000	      9.85156e-02	
     12745.10000	      1.01912e-01	
     12788.30000	      1.00892e-01	
     12831.50000	      9.88772e-02	
     12874.70000	      1.00200e-01	
     12917.80000	      9.88789e-02	
     12961.00000	      1.00742e-01	
     13004.20000	      9.87149e-02	
     13047.40000	      9.86387e-02	
     13090.50000	      9.82327e-02	
     13133.70000	      1.01455e-01	
     13176.90000	      1.00991e-01	
     13220.00000	      1.02377e-01	
     13263.20000	      9.83276e-02	
     13306.30000	      9.38386e-02	
     13349.40000	      7.93662e-02	
     13392.50000	      6.59999e-02	
     13435.60000	      5.75403e-02	
     13478.70000	      5.48137e-02	
     13521.80000	      5.15580e-02	
     13564.80000	      5.41279e-02	
     13607.80000	      4.89153e-02	
     13650.80000	      5.30505e-02	
     13693.80000	      5.29395e-02	
     13736.70000	      5.56109e-02	
     13779.60000	      5.44617e-02	
     13822.50000	      5.71965e-02	
     13865.40000	      5.54790e-02	
     13908.20000	      5.47341e-02	
     13951.00000	      5.46775e-02	
     13993.80000	      5.43411e-02	
     14036.50000	      5.10297e-02	
     14079.30000	      5.04853e-02	
     14121.90000	      5.12734e-02	
     14164.60000	      4.96355e-02	
     14207.20000	      4.90855e-02	
     14249.70000	      4.68997e-02	
     14292.20000	      4.70842e-02	
     14334.70000	      4.74189e-02	
     14377.20000	      4.92874e-02	
     14419.60000	      4.86368e-02	
     14461.90000	      5.05375e-02	
     14504.20000	      5.24391e-02	
     14546.50000	      5.25701e-02	
     14588.70000	      5.61579e-02	
     14630.90000	      5.67697e-02	
     14673.00000	      5.92126e-02	
     14715.10000	      5.67327e-02	
     14757.10000	      5.74607e-02	
     14799.10000	      5.79193e-02	
     14841.00000	      6.04101e-02	
     14882.90000	      6.11981e-02	
     14924.80000	      6.25344e-02	
     14966.50000	      6.21202e-02	
     15008.30000	      6.46105e-02	
     15049.90000	      6.53176e-02	
     15091.50000	      6.72597e-02	
     15133.10000	      6.76561e-02	
     15174.60000	      7.14109e-02	
     15216.10000	      7.19057e-02	
     15257.50000	      7.43560e-02	
     15298.80000	      7.56453e-02	
     15340.10000	      7.63041e-02	
     15381.30000	      7.73593e-02	
     15422.50000	      8.09010e-02	
     15463.60000	      8.04532e-02	
     15504.60000	      8.24766e-02	
     15545.60000	      8.26328e-02	
     15586.50000	      8.43168e-02	
     15627.40000	      8.46389e-02	
     15668.20000	      8.69351e-02	
     15708.90000	      8.57298e-02	
     15749.60000	      8.92166e-02	
     15790.20000	      8.93937e-02	
     15830.80000	      8.84759e-02	
     15871.30000	      8.59173e-02	
     15911.70000	      8.64965e-02	
     15952.10000	      8.69690e-02	
     15992.40000	      8.91265e-02	
     16032.60000	      8.95708e-02	
     16072.80000	      8.95917e-02	
     16112.90000	      8.79677e-02	
     16152.90000	      8.87862e-02	
     16192.90000	      8.87218e-02	
     16232.80000	      8.95982e-02	
     16272.70000	      8.95194e-02	
     16312.50000	      8.97379e-02	
     16352.20000	      8.95664e-02	
     16391.90000	      9.12300e-02	
     16431.50000	      8.90747e-02	
     16471.00000	      9.23914e-02	
     16510.40000	      9.43025e-02	
     16549.80000	      9.42098e-02	
     16589.20000	      9.44814e-02	
     16628.40000	      9.43943e-02	
     16667.60000	      9.46554e-02	
     16706.80000	      9.36811e-02	
     16745.80000	      9.39252e-02	
     16784.80000	      9.54913e-02	
     16823.80000	      9.34435e-02	
     16862.60000	      9.60883e-02	
     16901.40000	      9.51584e-02	
     16940.20000	      9.35676e-02	
     16978.90000	      9.39544e-02	
     17017.50000	      9.36363e-02	
     17056.00000	      9.19232e-02	
     17094.50000	      9.23579e-02	
     17132.90000	      9.04515e-02	
     17171.20000	      8.97178e-02	
     17209.50000	      8.74468e-02	
     17247.70000	      8.43756e-02	
     17285.90000	      8.33038e-02	
     17324.00000	      8.20815e-02	
     17362.00000	      8.01869e-02	
     17400.00000	      7.91478e-02	
     17437.90000	      7.67480e-02	
     17475.70000	      7.49056e-02	
     17513.50000	      7.38564e-02	
     17551.20000	      7.06055e-02	
     17588.80000	      6.99528e-02	
     17626.40000	      6.67901e-02	
     17663.90000	      6.56375e-02	
     17701.40000	      6.32346e-02	
     17738.80000	      6.14675e-02	
     17776.10000	      6.04914e-02	
     17813.40000	      5.81108e-02	
     17850.60000	      5.64316e-02	
     17887.70000	      5.54007e-02	
     17924.80000	      5.64050e-02	
     17961.80000	      5.42193e-02	
     17998.80000	      5.54925e-02	
     18035.70000	      5.29421e-02	
     18072.50000	      5.20601e-02	
     18109.30000	      5.18591e-02	
     18146.00000	      5.22772e-02	
     18182.70000	      5.36967e-02	
     18219.30000	      5.49878e-02	
     18255.80000	      5.51957e-02	
     18292.30000	      5.70795e-02	
     18328.80000	      5.55273e-02	
     18365.10000	      5.22442e-02	
     18401.40000	      5.17224e-02	
     18437.70000	      4.76356e-02	
     18473.90000	      4.92965e-02	
     18510.00000	      5.19022e-02	
     18546.10000	      4.81691e-02	
     18582.10000	      4.86273e-02	
     18618.10000	      4.37376e-02	
     18654.00000	      4.53132e-02	
     18689.90000	      4.57079e-02	
     18725.70000	      4.63885e-02	
     18761.40000	      4.60530e-02	
     18797.10000	      4.93422e-02	
     18832.80000	      5.08282e-02	
     18868.40000	      4.97560e-02	
     18903.90000	      4.92708e-02	
     18939.40000	      5.21445e-02	
     18974.80000	      4.97351e-02	
     19010.20000	      5.33960e-02	
     19045.50000	      4.98000e-02	
     19080.70000	      5.42402e-02	
     19116.00000	      5.75481e-02	
     19151.10000	      5.92817e-02	
     19186.20000	      5.40500e-02	
     19221.30000	      5.62984e-02	
     19256.30000	      5.41257e-02	
     19291.30000	      5.61718e-02	
     19326.20000	      5.06350e-02	
     19361.00000	      4.98378e-02	
     19395.80000	      5.00780e-02	
     19430.60000	      4.83562e-02	
     19465.30000	      4.69698e-02	
     19500.00000	      4.83592e-02	
     19534.60000	      4.61883e-02	
     19569.10000	      4.60791e-02	
     19603.60000	      4.54394e-02	
     19638.10000	      4.65233e-02	
     19672.50000	      4.61744e-02	
     19706.90000	      4.68136e-02	
     19741.20000	      4.79828e-02	
     19775.40000	      4.64951e-02	
     19809.70000	      4.61374e-02	
     19843.80000	      4.63919e-02	
     19878.00000	      4.64207e-02	
     19912.00000	      4.69763e-02	
     19946.10000	      4.59646e-02	
     19980.10000	      4.78658e-02	
     20014.00000	      4.86133e-02	
     20047.90000	      4.67161e-02	
     20081.70000	      4.86495e-02	
     20115.50000	      4.98544e-02	
     20149.30000	      5.01929e-02	
     20183.00000	      5.17055e-02	
     20216.60000	      5.29500e-02	
     20250.30000	      5.10863e-02	
     20283.80000	      5.01372e-02	
     20317.30000	      5.08052e-02	
     20350.80000	      5.07660e-02	
     20384.20000	      5.20001e-02	
     20417.60000	      5.21780e-02	
     20451.00000	      5.36214e-02	
     20484.30000	      5.39047e-02	
     20517.50000	      5.57632e-02	
     20550.70000	      5.39552e-02	
     20583.90000	      5.57545e-02	
     20617.00000	      5.58859e-02	
     20650.10000	      5.76804e-02	
     20683.10000	      5.61631e-02	
     20716.10000	      5.82187e-02	
     20749.00000	      5.82996e-02	
     20781.90000	      5.90772e-02	
     20814.70000	      5.86229e-02	
     20847.50000	      5.95237e-02	
     20880.30000	      5.98474e-02	
     20913.00000	      5.93879e-02	
     20945.60000	      6.04514e-02	
     20978.30000	      6.06076e-02	
     21010.80000	      6.12116e-02	
     21043.40000	      6.12760e-02	
     21075.80000	      6.15153e-02	
     21108.30000	      6.21676e-02	
     21140.70000	      6.15937e-02	
     21173.00000	      6.20427e-02	
     21205.30000	      6.22916e-02	
     21237.50000	      6.25131e-02	
     21269.80000	      6.21637e-02	
     21301.90000	      6.31550e-02	
     21334.00000	      6.22394e-02	
     21366.10000	      6.23443e-02	
     21398.10000	      6.32907e-02	
     21430.10000	      6.32163e-02	
     21462.00000	      6.35200e-02	
     21493.90000	      6.31872e-02	
     21525.70000	      6.40540e-02	
     21557.50000	      6.35370e-02	
     21589.30000	      6.30366e-02	
     21621.00000	      6.24300e-02	
     21652.60000	      6.25392e-02	
     21684.20000	      6.42646e-02	
     21715.70000	      6.21663e-02	
     21747.30000	      6.27990e-02	
     21778.70000	      6.16463e-02	
     21810.10000	      6.18212e-02	
     21841.50000	      6.24326e-02	
     21872.80000	      6.19413e-02	
     21904.00000	      6.16472e-02	
     21935.30000	      6.28108e-02	
     21966.40000	      6.21711e-02	
     21997.50000	      6.11463e-02	
     22028.60000	      6.04780e-02	
     22059.60000	      6.09549e-02	
     22090.60000	      5.85807e-02	
     22121.50000	      5.98122e-02	
     22152.40000	      6.01438e-02	
     22183.20000	      6.13961e-02	
     22214.00000	      5.98496e-02	
     22244.70000	      5.99706e-02	
     22275.30000	      5.90616e-02	
     22306.00000	      5.81956e-02	
     22336.50000	      5.90398e-02	
     22367.00000	      5.97704e-02	
     22397.50000	      5.87330e-02	
     22427.90000	      5.82674e-02	
     22458.30000	      5.77104e-02	
     22488.60000	      5.78501e-02	
     22518.80000	      5.80050e-02	
     22549.10000	      5.72570e-02	
     22579.20000	      5.73828e-02	
     22609.30000	      5.67866e-02	
     22639.40000	      5.75899e-02	
     22669.40000	      5.65952e-02	
     22699.30000	      5.55130e-02	
     22729.20000	      5.58424e-02	
     22759.10000	      5.55774e-02	
     22788.90000	      5.63171e-02	
     22818.60000	      5.45208e-02	
     22848.30000	      5.58689e-02	
     22877.90000	      5.52615e-02	
     22907.50000	      5.58446e-02	
     22937.00000	      5.25640e-02	
     22966.50000	      4.79911e-02	
     22996.00000	      4.49751e-02	
     23025.30000	      4.17945e-02	
     23054.70000	      4.36188e-02	
     23083.90000	      4.32557e-02	
     23113.20000	      4.39590e-02	
     23142.30000	      4.37811e-02	
     23171.50000	      4.31700e-02	
     23200.50000	      4.41314e-02	
     23229.50000	      4.33551e-02	
     23258.50000	      4.19192e-02	
     23287.40000	      4.08782e-02	
     23316.30000	      4.10005e-02	
     23345.10000	      4.15039e-02	
     23373.90000	      4.30141e-02	
     23402.60000	      4.28460e-02	
     23431.30000	      4.11583e-02	
     23459.90000	      4.23629e-02	
     23488.50000	      4.24372e-02	
     23517.00000	      4.46244e-02	
     23545.50000	      4.13652e-02	
     23573.90000	      4.05550e-02	
     23602.30000	      4.02294e-02	
     23630.70000	      4.01071e-02	
     23659.00000	      4.06902e-02	
     23687.20000	      4.19962e-02	
     23715.50000	      4.06379e-02	
     23743.60000	      4.23925e-02	
     23771.80000	      4.08931e-02	
     23799.90000	      4.24340e-02	
     23827.90000	      4.06569e-02	
     23855.90000	      4.03148e-02	
     23883.90000	      4.15896e-02	
     23911.80000	      3.95735e-02	
     23939.70000	      3.90349e-02	
     23967.60000	      3.97191e-02	
     23995.40000	      3.99859e-02	
     24023.20000	      3.97950e-02	
     24051.00000	      4.04551e-02	
     24078.70000	      3.90207e-02	
     24106.40000	      3.83328e-02	
     24134.10000	      3.79871e-02	
     24161.70000	      3.89921e-02	
     24189.30000	      3.77225e-02	
     24216.90000	      3.58933e-02	
     24244.50000	      3.76568e-02	
     24272.00000	      3.62806e-02	
     24299.60000	      3.71932e-02	
     24327.10000	      3.65248e-02	
     24354.60000	      3.75313e-02	
     24382.10000	      3.58813e-02	
     24409.50000	      3.44596e-02	
     24437.00000	      3.57170e-02	
     24464.40000	      3.33788e-02	
     24491.90000	      3.49660e-02	
     24519.30000	      3.23430e-02	
     24546.80000	      3.03530e-02	
     24574.20000	      3.25827e-02	
     24601.60000	      3.34656e-02	
     24629.10000	      3.48848e-02	
     24656.50000	      3.42134e-02	
     24684.00000	      3.15398e-02	
     24711.50000	      3.15648e-02	
     24738.90000	      3.19790e-02	
     24766.40000	      2.93414e-02	
     24794.00000	      3.03242e-02	
     24821.50000	      3.16716e-02	
     24849.10000	      2.95753e-02	
     24876.70000	      3.03948e-02	
     24904.30000	      2.41744e-02	
     24932.00000	      2.53505e-02	
     24959.70000	      3.02096e-02	
     24987.50000	      2.76677e-02	
     25015.30000	      2.90031e-02	
     25043.10000	      2.65393e-02	
     25071.00000	      2.55681e-02	
     25099.00000	      2.90887e-02	
     25127.00000	      2.82814e-02	
     25155.10000	      2.67194e-02	
     25183.20000	      2.67373e-02	
     25211.40000	      2.18070e-02	
     25239.70000	      2.42021e-02	
     25268.10000	      2.56731e-02	
     25296.60000	      2.74029e-02	
     25325.10000	      3.65022e-02	
     25353.80000	      3.20740e-02	
     25382.60000	      2.23303e-02	
     25411.40000	      2.64869e-02	
     25440.40000	      2.51642e-02	
     25469.50000	      2.81264e-02	
     25498.70000	      4.79323e-02	
     25528.00000	      2.97652e-02	
     25557.50000	      1.03149e-02	
     25587.10000	      2.08087e-02	
     25616.80000	      2.29398e-02	
#time:0.015882
